%!PS-Adobe-2.0 EPSF-2.0
%%Creator: dvips(k) 5.997 Copyright 2017 Radical Eye Software
%%Title: figure.dvi
%%CreationDate: Thu Oct 22 21:10:28 2020
%%BoundingBox: 272 453 340 566
%%EndComments
%DVIPSWebPage: (www.radicaleye.com)
%DVIPSCommandLine: dvips -E -o hyperboloid1sheetD.eps figure
%DVIPSParameters: dpi=600
%DVIPSSource:  TeX output 2020.10.22:1409
%%BeginProcSet: tex.pro 0 0
%!
/TeXDict 300 dict def TeXDict begin/N{def}def/B{bind def}N/S{exch}N/X{S
N}B/A{dup}B/TR{translate}N/isls false N/vsize 11 72 mul N/hsize 8.5 72
mul N/landplus90{false}def/@rigin{isls{[0 landplus90{1 -1}{-1 1}ifelse 0
0 0]concat}if 72 Resolution div 72 VResolution div neg scale isls{
landplus90{VResolution 72 div vsize mul 0 exch}{Resolution -72 div hsize
mul 0}ifelse TR}if Resolution VResolution vsize -72 div 1 add mul TR[
matrix currentmatrix{A A round sub abs 0.00001 lt{round}if}forall round
exch round exch]setmatrix}N/@landscape{/isls true N}B/@manualfeed{
statusdict/manualfeed true put}B/@copies{/#copies X}B/FMat[1 0 0 -1 0 0]
N/FBB[0 0 0 0]N/nn 0 N/IEn 0 N/ctr 0 N/df-tail{/nn 8 dict N nn begin
/FontType 3 N/FontMatrix fntrx N/FontBBox FBB N string/base X array
/BitMaps X/BuildChar{CharBuilder}N/Encoding IEn N end A{/foo setfont}2
array copy cvx N load 0 nn put/ctr 0 N[}B/sf 0 N/df{/sf 1 N/fntrx FMat N
df-tail}B/dfs{div/sf X/fntrx[sf 0 0 sf neg 0 0]N df-tail}B/E{pop nn A
definefont setfont}B/Cw{Cd A length 5 sub get}B/Ch{Cd A length 4 sub get
}B/Cx{128 Cd A length 3 sub get sub}B/Cy{Cd A length 2 sub get 127 sub}
B/Cdx{Cd A length 1 sub get}B/Ci{Cd A type/stringtype ne{ctr get/ctr ctr
1 add N}if}B/CharBuilder{save 3 1 roll S A/base get 2 index get S
/BitMaps get S get/Cd X pop/ctr 0 N Cdx 0 Cx Cy Ch sub Cx Cw add Cy
setcachedevice Cw Ch true[1 0 0 -1 -.1 Cx sub Cy .1 sub]{Ci}imagemask
restore}B/D{/cc X A type/stringtype ne{]}if nn/base get cc ctr put nn
/BitMaps get S ctr S sf 1 ne{A A length 1 sub A 2 index S get sf div put
}if put/ctr ctr 1 add N}B/I{cc 1 add D}B/bop{userdict/bop-hook known{
bop-hook}if/SI save N @rigin 0 0 moveto/V matrix currentmatrix A 1 get A
mul exch 0 get A mul add .99 lt{/QV}{/RV}ifelse load def pop pop}N/eop{
SI restore userdict/eop-hook known{eop-hook}if showpage}N/@start{
userdict/start-hook known{start-hook}if pop/VResolution X/Resolution X
1000 div/DVImag X/IEn 256 array N 2 string 0 1 255{IEn S A 360 add 36 4
index cvrs cvn put}for pop 65781.76 div/vsize X 65781.76 div/hsize X}N
/dir 0 def/dyy{/dir 0 def}B/dyt{/dir 1 def}B/dty{/dir 2 def}B/dtt{/dir 3
def}B/p{dir 2 eq{-90 rotate show 90 rotate}{dir 3 eq{-90 rotate show 90
rotate}{show}ifelse}ifelse}N/RMat[1 0 0 -1 0 0]N/BDot 260 string N/Rx 0
N/Ry 0 N/V{}B/RV/v{/Ry X/Rx X V}B statusdict begin/product where{pop
false[(Display)(NeXT)(LaserWriter 16/600)]{A length product length le{A
length product exch 0 exch getinterval eq{pop true exit}if}{pop}ifelse}
forall}{false}ifelse end{{gsave TR -.1 .1 TR 1 1 scale Rx Ry false RMat{
BDot}imagemask grestore}}{{gsave TR -.1 .1 TR Rx Ry scale 1 1 false RMat
{BDot}imagemask grestore}}ifelse B/QV{gsave newpath transform round exch
round exch itransform moveto Rx 0 rlineto 0 Ry neg rlineto Rx neg 0
rlineto fill grestore}B/a{moveto}B/delta 0 N/tail{A/delta X 0 rmoveto}B
/M{S p delta add tail}B/b{S p tail}B/c{-4 M}B/d{-3 M}B/e{-2 M}B/f{-1 M}
B/g{0 M}B/h{1 M}B/i{2 M}B/j{3 M}B/k{4 M}B/w{0 rmoveto}B/l{p -4 w}B/m{p
-3 w}B/n{p -2 w}B/o{p -1 w}B/q{p 1 w}B/r{p 2 w}B/s{p 3 w}B/t{p 4 w}B/x{
0 S rmoveto}B/y{3 2 roll p a}B/bos{/SS save N}B/eos{SS restore}B end

%%EndProcSet
%%BeginProcSet: special.pro 0 0
%!
TeXDict begin/SDict 200 dict N SDict begin/@SpecialDefaults{/hs 612 N
/vs 792 N/ho 0 N/vo 0 N/hsc 1 N/vsc 1 N/ang 0 N/CLIP 0 N/rwiSeen false N
/rhiSeen false N/letter{}N/note{}N/a4{}N/legal{}N}B/@scaleunit 100 N
/@hscale{@scaleunit div/hsc X}B/@vscale{@scaleunit div/vsc X}B/@hsize{
/hs X/CLIP 1 N}B/@vsize{/vs X/CLIP 1 N}B/@clip{/CLIP 2 N}B/@hoffset{/ho
X}B/@voffset{/vo X}B/@angle{/ang X}B/@rwi{10 div/rwi X/rwiSeen true N}B
/@rhi{10 div/rhi X/rhiSeen true N}B/@llx{/llx X}B/@lly{/lly X}B/@urx{
/urx X}B/@ury{/ury X}B/magscale true def end/@MacSetUp{userdict/md known
{userdict/md get type/dicttype eq{userdict begin md length 10 add md
maxlength ge{/md md dup length 20 add dict copy def}if end md begin
/letter{}N/note{}N/legal{}N/od{txpose 1 0 mtx defaultmatrix dtransform S
atan/pa X newpath clippath mark{transform{itransform moveto}}{transform{
itransform lineto}}{6 -2 roll transform 6 -2 roll transform 6 -2 roll
transform{itransform 6 2 roll itransform 6 2 roll itransform 6 2 roll
curveto}}{{closepath}}pathforall newpath counttomark array astore/gc xdf
pop ct 39 0 put 10 fz 0 fs 2 F/|______Courier fnt invertflag{PaintBlack}
if}N/txpose{pxs pys scale ppr aload pop por{noflips{pop S neg S TR pop 1
-1 scale}if xflip yflip and{pop S neg S TR 180 rotate 1 -1 scale ppr 3
get ppr 1 get neg sub neg ppr 2 get ppr 0 get neg sub neg TR}if xflip
yflip not and{pop S neg S TR pop 180 rotate ppr 3 get ppr 1 get neg sub
neg 0 TR}if yflip xflip not and{ppr 1 get neg ppr 0 get neg TR}if}{
noflips{TR pop pop 270 rotate 1 -1 scale}if xflip yflip and{TR pop pop
90 rotate 1 -1 scale ppr 3 get ppr 1 get neg sub neg ppr 2 get ppr 0 get
neg sub neg TR}if xflip yflip not and{TR pop pop 90 rotate ppr 3 get ppr
1 get neg sub neg 0 TR}if yflip xflip not and{TR pop pop 270 rotate ppr
2 get ppr 0 get neg sub neg 0 S TR}if}ifelse scaleby96{ppr aload pop 4
-1 roll add 2 div 3 1 roll add 2 div 2 copy TR .96 dup scale neg S neg S
TR}if}N/cp{pop pop showpage pm restore}N end}if}if}N/normalscale{
Resolution 72 div VResolution 72 div neg scale magscale{DVImag dup scale
}if 0 setgray}N/@beginspecial{SDict begin/SpecialSave save N gsave
normalscale currentpoint TR @SpecialDefaults count/ocount X/dcount
countdictstack N}N/@setspecial{CLIP 1 eq{newpath 0 0 moveto hs 0 rlineto
0 vs rlineto hs neg 0 rlineto closepath clip}if ho vo TR hsc vsc scale
ang rotate rwiSeen{rwi urx llx sub div rhiSeen{rhi ury lly sub div}{dup}
ifelse scale llx neg lly neg TR}{rhiSeen{rhi ury lly sub div dup scale
llx neg lly neg TR}if}ifelse CLIP 2 eq{newpath llx lly moveto urx lly
lineto urx ury lineto llx ury lineto closepath clip}if/showpage{}N
/erasepage{}N/setpagedevice{pop}N/copypage{}N newpath}N/@endspecial{
count ocount sub{pop}repeat countdictstack dcount sub{end}repeat
grestore SpecialSave restore end}N/@defspecial{SDict begin}N
/@fedspecial{end}B/li{lineto}B/rl{rlineto}B/rc{rcurveto}B/np{/SaveX
currentpoint/SaveY X N 1 setlinecap newpath}N/st{stroke SaveX SaveY
moveto}N/fil{fill SaveX SaveY moveto}N/ellipse{/endangle X/startangle X
/yrad X/xrad X/savematrix matrix currentmatrix N TR xrad yrad scale 0 0
1 startangle endangle arc savematrix setmatrix}N end

%%EndProcSet
%%BeginProcSet: color.pro 0 0
%!
TeXDict begin/setcmykcolor where{pop}{/setcmykcolor{dup 10 eq{pop
setrgbcolor}{1 sub 4 1 roll 3{3 index add neg dup 0 lt{pop 0}if 3 1 roll
}repeat setrgbcolor pop}ifelse}B}ifelse/TeXcolorcmyk{setcmykcolor}def
/TeXcolorrgb{setrgbcolor}def/TeXcolorgrey{setgray}def/TeXcolorgray{
setgray}def/TeXcolorhsb{sethsbcolor}def/currentcmykcolor where{pop}{
/currentcmykcolor{currentrgbcolor 10}B}ifelse/DC{exch dup userdict exch
known{pop pop}{X}ifelse}B/GreenYellow{0.15 0 0.69 0 setcmykcolor}DC
/Yellow{0 0 1 0 setcmykcolor}DC/Goldenrod{0 0.10 0.84 0 setcmykcolor}DC
/Dandelion{0 0.29 0.84 0 setcmykcolor}DC/Apricot{0 0.32 0.52 0
setcmykcolor}DC/Peach{0 0.50 0.70 0 setcmykcolor}DC/Melon{0 0.46 0.50 0
setcmykcolor}DC/YellowOrange{0 0.42 1 0 setcmykcolor}DC/Orange{0 0.61
0.87 0 setcmykcolor}DC/BurntOrange{0 0.51 1 0 setcmykcolor}DC
/Bittersweet{0 0.75 1 0.24 setcmykcolor}DC/RedOrange{0 0.77 0.87 0
setcmykcolor}DC/Mahogany{0 0.85 0.87 0.35 setcmykcolor}DC/Maroon{0 0.87
0.68 0.32 setcmykcolor}DC/BrickRed{0 0.89 0.94 0.28 setcmykcolor}DC/Red{
0 1 1 0 setcmykcolor}DC/OrangeRed{0 1 0.50 0 setcmykcolor}DC/RubineRed{
0 1 0.13 0 setcmykcolor}DC/WildStrawberry{0 0.96 0.39 0 setcmykcolor}DC
/Salmon{0 0.53 0.38 0 setcmykcolor}DC/CarnationPink{0 0.63 0 0
setcmykcolor}DC/Magenta{0 1 0 0 setcmykcolor}DC/VioletRed{0 0.81 0 0
setcmykcolor}DC/Rhodamine{0 0.82 0 0 setcmykcolor}DC/Mulberry{0.34 0.90
0 0.02 setcmykcolor}DC/RedViolet{0.07 0.90 0 0.34 setcmykcolor}DC
/Fuchsia{0.47 0.91 0 0.08 setcmykcolor}DC/Lavender{0 0.48 0 0
setcmykcolor}DC/Thistle{0.12 0.59 0 0 setcmykcolor}DC/Orchid{0.32 0.64 0
0 setcmykcolor}DC/DarkOrchid{0.40 0.80 0.20 0 setcmykcolor}DC/Purple{
0.45 0.86 0 0 setcmykcolor}DC/Plum{0.50 1 0 0 setcmykcolor}DC/Violet{
0.79 0.88 0 0 setcmykcolor}DC/RoyalPurple{0.75 0.90 0 0 setcmykcolor}DC
/BlueViolet{0.86 0.91 0 0.04 setcmykcolor}DC/Periwinkle{0.57 0.55 0 0
setcmykcolor}DC/CadetBlue{0.62 0.57 0.23 0 setcmykcolor}DC
/CornflowerBlue{0.65 0.13 0 0 setcmykcolor}DC/MidnightBlue{0.98 0.13 0
0.43 setcmykcolor}DC/NavyBlue{0.94 0.54 0 0 setcmykcolor}DC/RoyalBlue{1
0.50 0 0 setcmykcolor}DC/Blue{1 1 0 0 setcmykcolor}DC/Cerulean{0.94 0.11
0 0 setcmykcolor}DC/Cyan{1 0 0 0 setcmykcolor}DC/ProcessBlue{0.96 0 0 0
setcmykcolor}DC/SkyBlue{0.62 0 0.12 0 setcmykcolor}DC/Turquoise{0.85 0
0.20 0 setcmykcolor}DC/TealBlue{0.86 0 0.34 0.02 setcmykcolor}DC
/Aquamarine{0.82 0 0.30 0 setcmykcolor}DC/BlueGreen{0.85 0 0.33 0
setcmykcolor}DC/Emerald{1 0 0.50 0 setcmykcolor}DC/JungleGreen{0.99 0
0.52 0 setcmykcolor}DC/SeaGreen{0.69 0 0.50 0 setcmykcolor}DC/Green{1 0
1 0 setcmykcolor}DC/ForestGreen{0.91 0 0.88 0.12 setcmykcolor}DC
/PineGreen{0.92 0 0.59 0.25 setcmykcolor}DC/LimeGreen{0.50 0 1 0
setcmykcolor}DC/YellowGreen{0.44 0 0.74 0 setcmykcolor}DC/SpringGreen{
0.26 0 0.76 0 setcmykcolor}DC/OliveGreen{0.64 0 0.95 0.40 setcmykcolor}
DC/RawSienna{0 0.72 1 0.45 setcmykcolor}DC/Sepia{0 0.83 1 0.70
setcmykcolor}DC/Brown{0 0.81 1 0.60 setcmykcolor}DC/Tan{0.14 0.42 0.56 0
setcmykcolor}DC/Gray{0 0 0 0.50 setcmykcolor}DC/Black{0 0 0 1
setcmykcolor}DC/White{0 0 0 0 setcmykcolor}DC end

%%EndProcSet
TeXDict begin 40258437 52099154 1000 600 600 (figure.dvi)
@start end
%%EndProlog
%%BeginSetup
%%Feature: *Resolution 600dpi
TeXDict begin
 end
%%EndSetup
TeXDict begin 1 0 bop 0 TeXcolorgray Black 0 TeXcolorgray
1359 2356 a @beginspecial @setspecial
%%BeginDocument: hyperboloid1sheetD.ps
%!PS-Adobe-3.0
%%BoundingBox:       0.0 0.0     144.0 144.0
%%Title:              
%%Created by:        Figure.java
%%Date:              Thu Oct 22 14:09:49 PDT 2020
%%EndComments

gsave

%% ellipse library

/ellipsedict 10 dict def        %% arguments: xcentre ycentre xradius yradius
ellipsedict /emtrx matrix put  %%            startangle endangle closetype

/ellipse                       %% closetype: 0 for open, 1 for chord, 2 for wedge
    {ellipsedict begin
       /closetype exch def
       /endangle exch def      /startangle exch def
       /yrad exch def          /xrad exch def
       /y exch def             /x exch def
       /savematrix emtrx currentmatrix def
    x y translate
    xrad  yrad  scale
    newpath
    closetype 2 eq  {0 0 moveto} if
    0 0 1 startangle endangle arc
    closetype 1 eq  {closepath} if
    closetype 2 eq  {closepath} if
    savematrix setmatrix
    end
    } def

%%  Figure2ps dictionary

/Figure2psDict 30 dict def
Figure2psDict begin
  /iscp false def
  {pop pop /iscp true def} {pop pop} {pop pop pop pop pop pop} {} pathforall
  iscp {currentpoint translate} if
  /setpsfont {exch findfont exch scalefont setfont} bind def
  /stringsize {/temp exch def gsave newpath 0 0 moveto
               temp true charpath flattenpath pathbbox
               /strh exch def /strw exch def pop  pop grestore} bind def

newpath -1.0 -1.0 moveto 145.0 -1.0 lineto 145.0 145.0 lineto -1.0 145.0 lineto closepath clip
/Helvetica 10 setpsfont
/DeviceGray setcolorspace

<<
    /ShadingType 6
    /ColorSpace	 /DeviceGray
    /DataSource [
  0       87.029  60.633   87.228  61.559   86.725  62.640     85.586  63.735   85.274  65.075   85.029  66.413     84.864  67.749   85.943  66.712   86.419  65.688     86.230  64.812   86.413  63.438   86.684  62.044
    0.224 0.159 0.153 0.221
  2     86.048  66.187   85.954  67.541     85.954  68.874   86.139  69.733   85.672  70.737     84.615  71.754   84.615  70.421   84.699  69.086
    0.219 0.150
  2     84.615  73.088   84.699  74.419     84.864  75.749   85.943  74.712   86.419  73.688     86.230  72.812   86.048  71.520   85.954  70.208
    0.153 0.221
  2     86.413  74.105   86.684  75.378     87.029  76.633   87.228  77.559   86.725  78.640     85.586  79.735   85.274  78.408   85.029  77.079
    0.224 0.159
  2     85.899  81.063   86.278  82.388     86.711  83.713   87.944  82.528   88.489  81.357     88.273  80.355   87.795  79.129   87.375  77.889
    0.166 0.228
  2     88.752  81.581   89.289  82.794     89.870  83.997   90.107  85.097   89.509  86.383     88.154  87.685   87.629  86.362   87.144  85.038
    0.232 0.173
  2     88.680  89.008   89.245  90.331     89.840  91.652   91.335  90.214   91.996  88.794     91.734  87.580   91.076  86.394   90.451  85.200
    0.177 0.234
  2     92.392  88.765   93.082  89.944     93.797  91.117   94.086  92.459   93.356  94.028     91.705  95.616   91.058  94.295   90.434  92.974
    0.236 0.181
  2     92.351  96.937   93.019  98.257     93.703  99.577   95.522  97.828   96.326  96.100     96.008  94.622   95.251  93.458   94.512  92.291
    0.183 0.237
  2     96.765  95.786   97.540  96.946     98.329  98.102   98.678  99.723   97.796 101.618     95.801 103.536   95.088 102.217   94.387 100.897
    0.238 0.185
  2     96.514 104.856   97.240 106.175     97.975 107.494  100.153 105.400  101.114 103.333    100.733 101.564   99.920 100.412   99.117  99.259
    0.187 0.239
  2    101.546 102.715  102.370 103.864    103.202 105.011  103.616 106.932  102.572 109.177    100.207 111.450   99.455 110.132   98.710 108.813
    0.240 0.188
  0       85.586  63.735   84.447  64.830   82.675  65.936     80.503  66.908   80.308  68.174   80.155  69.455     80.051  70.753   82.108  69.834   83.786  68.786     84.864  67.749   85.029  66.413   85.274  65.075
    0.159 0.132 0.124 0.153
  2     84.699  69.086   84.615  70.421     84.615  71.754   83.557  72.771   81.912  73.798     79.895  74.700   79.895  73.367   79.948  72.052
    0.150 0.120
  2     79.895  76.033   79.948  77.385     80.051  78.753   82.108  77.834   83.786  76.786     84.864  75.749   84.699  74.419   84.615  73.088
    0.124 0.153
  2     85.029  77.079   85.274  78.408     85.586  79.735   84.447  80.830   82.675  81.936     80.503  82.908   80.308  81.508   80.155  80.122
    0.159 0.132
  2     80.699  84.308   80.936  85.723     81.207  87.149   83.559  86.097   85.478  84.899     86.711  83.713   86.278  82.388   85.899  81.063
    0.140 0.166
  2     87.144  85.038   87.629  86.362     88.154  87.685   86.800  88.987   84.693  90.303     82.110  91.458   81.782  90.012   81.478  88.575
    0.173 0.148
  2     82.439  92.903   82.793  94.358     83.165  95.818   86.017  94.543   88.344  93.090     89.840  91.652   89.245  90.331   88.680  89.008
    0.153 0.177
  2     90.434  92.974   91.058  94.295     91.705  95.616   90.053  97.204   87.482  98.809     84.332 100.218   83.928  98.746   83.537  97.279
    0.181 0.158
  2     84.737 101.689   85.155 103.165     85.583 104.645   89.053 103.093   91.883 101.326     93.703  99.577   93.019  98.257   92.351  96.937
    0.161 0.183
  2     94.387 100.897   95.088 102.217     95.801 103.536   93.806 105.455   90.701 107.392     86.896 109.094   86.450 107.608   86.011 106.125
    0.185 0.163
  2     87.342 110.580   87.797 112.069     88.257 113.560   92.409 111.702   95.797 109.588     97.975 107.494   97.240 106.175   96.514 104.856
    0.165 0.187
  2     98.710 108.813   99.455 110.132    100.207 111.450   97.842 113.724   94.163 116.020     89.654 118.037   89.183 116.543   88.717 115.050
    0.188 0.166
  0       80.503  66.908   78.331  67.879   75.765  68.714     73.142  69.302   73.115  70.513   73.095  71.751     73.081  73.020   75.565  72.463   77.995  71.673     80.051  70.753   80.155  69.455   80.308  68.174
    0.132 0.149 0.142 0.124
  2     79.948  72.052   79.895  73.367     79.895  74.700   77.878  75.602   75.495  76.377     73.060  76.922   73.060  75.589   73.067  74.289
    0.120 0.139
  2     73.060  78.256   73.067  79.622     73.081  81.020   75.565  80.463   77.995  79.673     80.051  78.753   79.948  77.385   79.895  76.033
    0.142 0.124
  2     80.155  80.122   80.308  81.508     80.503  82.908   78.331  83.879   75.765  84.714     73.142  85.302   73.115  83.846   73.095  82.418
    0.132 0.149
  2     73.168  86.757   73.200  88.238     73.236  89.740   76.076  89.104   78.855  88.201     81.207  87.149   80.936  85.723   80.699  84.308
    0.157 0.140
  2     81.478  88.575   81.782  90.012     82.110  91.458   79.528  92.613   76.476  93.605     73.357  94.304   73.313  92.765   73.272  91.243
    0.148 0.164
  2     73.401  95.842   73.449  97.396     73.499  98.961   76.943  98.190   80.313  97.094     83.165  95.818   82.793  94.358   82.439  92.903
    0.169 0.153
  2     83.537  97.279   83.928  98.746     84.332 100.218   81.182 101.627   77.460 102.837     73.656 103.689   73.601 102.104   73.549 100.527
    0.158 0.172
  2     73.710 105.274   73.766 106.868     73.824 108.469   78.014 107.530   82.113 106.197     85.583 104.645   85.155 103.165   84.737 101.689
    0.175 0.161
  2     86.011 106.125   86.450 107.608     86.896 109.094   83.091 110.796   78.595 112.258     74.000 113.287   73.940 111.676   73.881 110.069
    0.163 0.177
  2     74.060 114.899   74.121 116.516     74.182 118.136   79.197 117.012   84.104 115.417     88.257 113.560   87.797 112.069   87.342 110.580
    0.179 0.165
  2     88.717 115.050   89.183 116.543     89.654 118.037   85.144 120.054   79.816 121.787     74.370 123.007   74.307 121.380   74.244 119.756
    0.166 0.180
  0       73.142  69.302   70.518  69.889   67.845  70.228     65.474  70.275   65.624  71.464   65.742  72.684     65.821  73.941   68.066  73.897   70.597  73.576     73.081  73.020   73.095  71.751   73.115  70.513
    0.149 0.207 0.203 0.142
  2     73.067  74.289   73.060  75.589     73.060  76.922   70.624  77.468   68.143  77.783     65.941  77.826   65.941  76.492   65.900  75.198
    0.139 0.201
  2     65.941  79.159   65.900  80.532     65.821  81.941   68.066  81.897   70.597  81.576     73.081  81.020   73.067  79.622   73.060  78.256
    0.203 0.142
  2     73.095  82.418   73.115  83.846     73.142  85.302   70.518  85.889   67.845  86.228     65.474  86.275   65.624  84.797   65.742  83.351
    0.149 0.207
  2     65.324  87.752   65.142  89.261     64.934  90.794   67.501  90.744   70.396  90.377     73.236  89.740   73.200  88.238   73.168  86.757
    0.212 0.157
  2     73.272  91.243   73.313  92.765     73.357  94.304   70.238  95.002   67.060  95.406     64.241  95.461   64.493  93.885   64.726  92.327
    0.164 0.216
  2     63.988  97.037   63.717  98.631     63.431 100.239   66.545 100.178   70.055  99.733     73.499  98.961   73.449  97.396   73.401  95.842
    0.219 0.169
  2     73.549 100.527   73.601 102.104     73.656 103.689   69.851 104.541   65.974 105.033     62.535 105.100   62.846 103.468   63.145 101.847
    0.172 0.221
  2     62.225 106.732   61.904 108.374     61.575 110.023   65.363 109.949   69.633 109.407     73.824 108.469   73.766 106.868   73.710 105.274
    0.223 0.175
  2     73.881 110.069   73.940 111.676     74.000 113.287   69.405 114.317   64.722 114.911     60.568 114.992   60.910 113.329   61.247 111.672
    0.177 0.224
  2     60.225 116.655   59.877 118.323     59.523 119.996   64.057 119.908   69.168 119.259     74.182 118.136   74.121 116.516   74.060 114.899
    0.225 0.179
  2     74.244 119.756   74.307 121.380     74.370 123.007   68.924 124.227   63.374 124.931     58.451 125.027   58.813 123.346   59.170 121.669
    0.180 0.226
  0       65.474  70.275   63.103  70.321   61.039  70.074     59.555  69.566   59.841  70.772   60.065  72.005     60.217  73.271   61.622  73.751   63.576  73.985     65.821  73.941   65.742  72.684   65.624  71.464
    0.207 0.290 0.290 0.203
  2     65.900  75.198   65.941  76.492     65.941  77.826   63.739  77.869   61.823  77.639     60.445  77.168   60.445  75.835   60.368  74.536
    0.201 0.289
  2     60.445  78.502   60.368  79.870     60.217  81.271   61.622  81.751   63.576  81.985     65.821  81.941   65.900  80.532   65.941  79.159
    0.290 0.203
  2     65.742  83.351   65.624  84.797     65.474  86.275   63.103  86.321   61.039  86.074     59.555  85.566   59.841  84.105   60.065  82.671
    0.207 0.290
  2     59.269  87.028   58.921  88.516     58.525  90.027   60.132  90.577   62.366  90.844     64.934  90.794   65.142  89.261   65.324  87.752
    0.291 0.212
  2     64.726  92.327   64.493  93.885     64.241  95.461   61.421  95.516   58.967  95.222     57.203  94.618   57.684  93.070   58.129  91.538
    0.216 0.291
  2     56.722  96.167   56.204  97.732     55.659  99.309   57.608  99.975   60.317 100.300     63.431 100.239   63.717  98.631   63.988  97.037
    0.291 0.219
  2     63.145 101.847   62.846 103.468     62.535 105.100   59.096 105.167   56.103 104.809     53.951 104.073   54.543 102.475   55.115 100.886
    0.221 0.292
  2     53.359 105.671   52.747 107.278     52.121 108.892   54.491 109.702   57.788 110.097     61.575 110.023   61.904 108.374   62.225 106.732
    0.292 0.223
  2     61.247 111.672   60.910 113.329     60.568 114.992   56.414 115.073   52.799 114.640     50.199 113.751   50.852 112.126   51.494 110.505
    0.224 0.292
  2     49.546 115.377   48.881 117.007     48.208 118.642   51.045 119.612   54.990 120.084     59.523 119.996   59.877 118.323   60.225 116.655
    0.292 0.225
  2     59.170 121.669   58.813 123.346     58.451 125.027   53.528 125.123   49.244 124.610     46.163 123.556   46.852 121.915   47.534 120.276
    0.226 0.292
  0       59.555  69.566   58.071  69.059   57.170  68.292     56.971  67.367   57.316  68.622   57.587  69.895     57.770  71.188   57.958  72.064   58.811  72.790     60.217  73.271   60.065  72.005   59.841  70.772
    0.290 0.376 0.379 0.290
  2     60.368  74.536   60.445  75.835     60.445  77.168   59.067  76.697   58.231  75.985     58.046  75.126   58.046  73.792   57.952  72.480
    0.289 0.381
  2     58.046  76.459   57.952  77.813     57.770  79.188   57.958  80.064   58.811  80.790     60.217  81.271   60.368  79.870   60.445  78.502
    0.379 0.290
  2     60.065  82.671   59.841  84.105     59.555  85.566   58.071  85.059   57.170  84.292     56.971  83.367   57.316  81.956   57.587  80.562
    0.290 0.376
  2     56.625  84.777   56.205  86.205     55.727  87.645   55.943  88.647   56.918  89.478     58.525  90.027   58.921  88.516   59.269  87.028
    0.372 0.291
  2     58.129  91.538   57.684  93.070     57.203  94.618   55.438  94.015   54.367  93.103     54.130  92.003   54.711  90.539   55.248  89.086
    0.291 0.368
  2     53.549  93.466   52.924  94.940     52.266  96.420   52.528  97.635   53.711  98.642     55.659  99.309   56.204  97.732   56.722  96.167
    0.366 0.291
  2     55.115 100.886   54.543 102.475     53.951 104.073   51.799 103.337   50.492 102.225     50.203 100.883   50.918  99.389   51.608  97.901
    0.292 0.364
  2     49.488 102.376   48.749 103.875     47.992 105.378   48.311 106.856   49.750 108.081     52.121 108.892   52.747 107.278   53.359 105.671
    0.363 0.292
  2     51.494 110.505   50.852 112.126     50.199 113.751   47.599 112.862   46.021 111.519     45.671 109.898   46.460 108.388   47.235 106.881
    0.292 0.362
  2     44.883 111.408   44.080 112.921     43.267 114.436   43.648 116.205   45.370 117.672     48.208 118.642   48.881 117.007   49.546 115.377
    0.361 0.292
  2     47.534 120.276   46.852 121.915     46.163 123.556   43.082 122.503   41.211 120.910     40.798 118.989   41.630 117.470   42.454 115.952
    0.292 0.360
  0       56.971  67.367   56.772  66.441   57.275  65.360     58.414  64.265   58.726  65.592   58.971  66.921     59.136  68.251   58.057  69.288   57.581  70.312     57.770  71.188   57.587  69.895   57.316  68.622
    0.376 0.441 0.447 0.379
  2     57.952  72.480   58.046  73.792     58.046  75.126   57.861  74.267   58.328  73.263     59.385  72.246   59.385  70.912   59.301  69.581
    0.381 0.450
  2     59.385  73.579   59.301  74.914     59.136  76.251   58.057  77.288   57.581  78.312     57.770  79.188   57.952  77.813   58.046  76.459
    0.447 0.379
  2     57.587  80.562   57.316  81.956     56.971  83.367   56.772  82.441   57.275  81.360     58.414  80.265   58.726  78.925   58.971  77.587
    0.376 0.441
  2     58.101  81.604   57.722  82.945     57.289  84.287   56.056  85.472   55.511  86.643     55.727  87.645   56.205  86.205   56.625  84.777
    0.434 0.372
  2     55.248  89.086   54.711  90.539     54.130  92.003   53.893  90.903   54.491  89.617     55.846  88.315   56.371  86.971   56.856  85.628
    0.368 0.427
  2     55.320  89.658   54.755  91.003     54.160  92.348   52.665  93.786   52.004  95.206     52.266  96.420   52.924  94.940   53.549  93.466
    0.423 0.366
  2     51.608  97.901   50.918  99.389     50.203 100.883   49.914  99.541   50.644  97.972     52.295  96.384   52.942  95.038   53.566  93.693
    0.364 0.419
  2     51.649  97.730   50.981  99.076     50.297 100.423   48.478 102.172   47.674 103.900     47.992 105.378   48.749 103.875   49.488 102.376
    0.417 0.363
  2     47.235 106.881   46.460 108.388     45.671 109.898   45.322 108.277   46.204 106.382     48.199 104.464   48.912 103.117   49.613 101.770
    0.362 0.415
  2     47.486 105.811   46.760 107.158     46.025 108.506   43.847 110.600   42.886 112.667     43.267 114.436   44.080 112.921   44.883 111.408
    0.413 0.361
  2     42.454 115.952   41.630 117.470     40.798 118.989   40.384 117.068   41.428 114.823     43.793 112.550   44.545 111.202   45.290 109.854
    0.360 0.412
  0       58.414  80.265   59.553  79.170   61.325  78.064     63.497  77.092   63.301  78.358   63.064  79.611     62.793  80.851   60.441  81.903   58.522  83.101     57.289  84.287   57.722  82.945   58.101  81.604
    0.441 0.468 0.460 0.434
  2     56.856  85.628   56.371  86.971     55.846  88.315   57.200  87.013   59.307  85.697     61.890  84.542   62.218  83.321   62.522  82.092
    0.427 0.452
  2     61.561  85.763   61.207  86.976     60.835  88.182   57.983  89.457   55.656  90.910     54.160  92.348   54.755  91.003   55.320  89.658
    0.447 0.423
  2     53.566  93.693   52.942  95.038     52.295  96.384   53.947  94.796   56.518  93.191     59.668  91.782   60.072  90.587   60.463  89.388
    0.419 0.442
  2     59.263  92.978   58.845  94.168     58.417  95.355   54.947  96.907   52.117  98.674     50.297 100.423   50.981  99.076   51.649  97.730
    0.439 0.417
  2     49.613 101.770   48.912 103.117     48.199 104.464   50.194 102.545   53.299 100.608     57.104  98.906   57.550  97.725   57.989  96.542
    0.415 0.437
  2     56.658 100.086   56.203 101.264     55.743 102.440   51.591 104.298   48.203 106.412     46.025 108.506   46.760 107.158   47.486 105.811
    0.435 0.413
  2     45.290 109.854   44.545 111.202     43.793 112.550   46.158 110.276   49.837 107.980     54.346 105.963   54.817 104.790   55.283 103.616
    0.412 0.434
    ]
>> shfill

/DeviceGray setcolorspace

<<
    /ShadingType 6
    /ColorSpace	 /DeviceGray
    /DataSource [
  0       55.900  25.292   56.330  26.804   56.755  28.314     57.174  29.823   58.612  29.224   60.125  28.656     61.690  28.129   61.399  26.573   61.103  25.014     60.804  23.452   59.104  24.025   57.461  24.641
    0.651 0.653 0.650 0.648
  2     62.504  22.879   64.261  22.350     66.049  21.872   66.207  23.476   66.364  25.077     66.520  26.674   64.874  27.114   63.256  27.601
    0.639 0.641
  2     68.165  26.234   69.839  25.841     71.515  25.502   71.502  23.872   71.488  22.238     71.474  20.600   69.653  20.969   67.836  21.395
    0.626 0.624
  2     73.294  20.232   75.117  19.922     76.915  19.675   76.784  21.337   76.654  22.995     76.526  24.650   74.870  24.878   73.192  25.163
    0.604 0.606
  2     78.181  24.422   79.814  24.252     81.399  24.142   81.665  22.473   81.934  20.800     82.206  19.123   80.486  19.243   78.713  19.427
    0.581 0.579
  2     83.927  19.004   85.596  18.951     87.188  18.963   86.783  20.644   86.382  22.322     85.986  23.995   84.520  23.983   82.984  24.033
    0.551 0.552
  2     87.452  24.007   88.846  24.080     90.149  24.212   90.662  22.546   91.183  20.874     91.708  19.200   90.294  19.055   88.780  18.976
    0.520 0.519
  2     93.122  19.344   94.436  19.553     95.629  19.825   94.999  21.483   94.376  23.137     93.760  24.788   92.661  24.538   91.451  24.345
    0.485 0.485
  2     94.859  25.038   95.847  25.345     96.710  25.704   97.409  24.080   98.117  22.451     98.833  20.820   97.896  20.429   96.823  20.096
    0.450 0.450
  2     99.769  21.210  100.570  21.657    101.221  22.154  100.442  23.750   99.670  25.344     98.909  26.933   98.309  26.476   97.572  26.064
    0.415 0.415
  2     99.508  27.391   99.971  27.895    100.290  28.438  101.091  26.891  101.902  25.341    102.721  23.788  102.375  23.199  101.872  22.652
    0.380 0.381
  2    103.067  24.377  103.257  25.008    103.288  25.672  102.453  27.174  101.627  28.674    100.812  30.172  100.784  29.562  100.609  28.981
    0.349 0.348
  2    100.840  30.783  100.722  31.424    100.458  32.084  101.264  30.640  102.080  29.194    102.904  27.747  103.190  27.030  103.318  26.335
    0.319 0.321
  2    102.618  28.464  102.175  29.203    101.581  29.952  100.792  31.340  100.011  32.728     99.240  34.114   99.787  33.424  100.195  32.744
    0.296 0.294
  2     98.693  34.804   98.008  35.504     97.194  36.202   97.907  34.874   98.630  33.547     99.359  32.219  100.243  31.461  100.987  30.701
    0.274 0.276
  2     98.476  32.978   97.453  33.735     96.306  34.480   95.658  35.747   95.016  37.015     94.383  38.284   95.439  37.598   96.381  36.900
    0.261 0.259
  0       41.279  40.212   42.098  41.326   42.909  42.443     43.710  43.562   43.391  43.019   43.216  42.438     43.188  41.828   42.373  40.659   41.547  39.493     40.712  38.328   40.743  38.992   40.933  39.623
    0.519 0.520 0.552 0.551
  2     40.682  37.665   40.810  36.970     41.096  36.253   41.920  37.473   42.736  38.694     43.542  39.916   43.278  40.576   43.160  41.217
    0.579 0.581
  2     43.805  39.256   44.213  38.576     44.760  37.886   43.989  36.606   43.208  35.327     42.419  34.048   41.825  34.797   41.382  35.536
    0.606 0.604
  2     43.013  33.299   43.757  32.539     44.641  31.781   45.370  33.120   46.093  34.459     46.806  35.798   45.992  36.496   45.307  37.196
    0.624 0.626
  2     47.619  35.100   48.561  34.402     49.617  33.716   48.984  32.319   48.342  30.920     47.694  29.520   46.547  30.265   45.524  31.022
    0.641 0.639
  2     48.840  28.776   50.111  28.043     51.485  27.335   52.032  28.793   52.574  30.249     53.109  31.704   51.843  32.357   50.673  33.031
    0.648 0.650
  2     54.375  31.052   55.737  30.422     57.174  29.823   56.755  28.314   56.330  26.804     55.900  25.292   54.339  25.942   52.860  26.627
    0.653 0.651
  0       57.174  29.823   57.594  31.331   58.008  32.837     58.415  34.340   59.732  33.791   61.119  33.271     62.553  32.787   62.270  31.238   61.982  29.685     61.690  28.129   60.125  28.656   58.612  29.224
    0.653 0.656 0.653 0.650
  2     63.256  27.601   64.874  27.114     66.520  26.674   66.675  28.271   66.828  29.865     66.978  31.454   65.470  31.857   63.988  32.304
    0.641 0.644
  2     68.486  31.051   70.020  30.692     71.556  30.381   71.543  28.759   71.529  27.133     71.515  25.502   69.839  25.841   68.165  26.234
    0.628 0.626
  2     73.192  25.163   74.870  24.878     76.526  24.650   76.398  26.305   76.271  27.955     76.147  29.600   74.630  29.809   73.092  30.070
    0.606 0.608
  2     77.664  29.391   79.160  29.235     80.612  29.135   80.870  27.476   81.133  25.811     81.399  24.142   79.814  24.252   78.181  24.422
    0.582 0.581
  2     82.984  24.033   84.520  23.983     85.986  23.995   85.590  25.668   85.200  27.337     84.816  29.000   83.473  28.989   82.064  29.034
    0.552 0.553
  2     86.159  29.011   87.437  29.077     88.630  29.199   89.128  27.542   89.635  25.879     90.149  24.212   88.846  24.080   87.452  24.007
    0.520 0.520
  2     91.451  24.345   92.661  24.538     93.760  24.788   93.144  26.439   92.536  28.085     91.939  29.726   90.932  29.497   89.823  29.321
    0.485 0.486
  2     92.946  29.955   93.851  30.237     94.642  30.566   95.320  28.950   96.010  27.329     96.710  25.704   95.847  25.345   94.859  25.038
    0.450 0.450
  2     97.572  26.064   98.309  26.476     98.909  26.933   98.147  28.523   97.395  30.110     96.657  31.692   96.107  31.273   95.432  30.895
    0.415 0.414
  2     97.206  32.112   97.630  32.574     97.922  33.071   98.699  31.530   99.489  29.985    100.290  28.438   99.971  27.895   99.508  27.391
    0.380 0.380
  2    100.609  28.981  100.784  29.562    100.812  30.172   99.996  31.671   99.192  33.167     98.401  34.660   98.375  34.101   98.215  33.568
    0.348 0.347
  2     98.426  35.220   98.318  35.807     98.077  36.412   98.858  34.971   99.653  33.528    100.458  32.084  100.722  31.424  100.840  30.783
    0.318 0.319
  2    100.195  32.744   99.787  33.424     99.240  34.114   98.469  35.501   97.708  36.887     96.960  38.272   97.461  37.640   97.835  37.017
    0.294 0.292
  2     96.459  38.904   95.831  39.545     95.086  40.185   95.777  38.857   96.481  37.530     97.194  36.202   98.008  35.504   98.693  34.804
    0.272 0.274
  2     96.381  36.900   95.439  37.598     94.383  38.284   93.749  39.552   93.124  40.822     92.510  42.092   93.477  41.464   94.340  40.825
    0.259 0.256
  0       43.710  43.562   44.511  44.681   45.301  45.803     46.078  46.929   45.785  46.432   45.625  45.899     45.599  45.340   44.808  44.167   44.004  42.996     43.188  41.828   43.216  42.438   43.391  43.019
    0.520 0.520 0.553 0.552
  2     43.160  41.217   43.278  40.576     43.542  39.916   44.347  41.139   45.142  42.363     45.923  43.588   45.682  44.193   45.574  44.780
    0.581 0.582
  2     46.165  42.983   46.539  42.360     47.040  41.728   46.292  40.446   45.531  39.166     44.760  37.886   44.213  38.576   43.805  39.256
    0.608 0.606
  2     45.307  37.196   45.992  36.496     46.806  35.798   47.519  37.137   48.223  38.476     48.914  39.815   48.169  40.455   47.541  41.096
    0.626 0.628
  2     49.660  39.175   50.523  38.536     51.490  37.908   50.876  36.512   50.251  35.114     49.617  33.716   48.561  34.402   47.619  35.100
    0.644 0.641
  2     50.673  33.031   51.843  32.357     53.109  31.704   53.643  33.159   54.171  34.613     54.690  36.064   53.530  36.661   52.458  37.279
    0.650 0.653
  2     55.850  35.466   57.098  34.888     58.415  34.340   58.008  32.837   57.594  31.331     57.174  29.823   55.737  30.422   54.375  31.052
    0.656 0.653
  0       58.415  34.340   58.822  35.843   59.222  37.343     59.613  38.839   60.814  38.338   62.078  37.864     63.386  37.423   63.114  35.883   62.836  34.337     62.553  32.787   61.119  33.271   59.732  33.791
    0.656 0.659 0.656 0.653
  2     63.988  32.304   65.470  31.857     66.978  31.454   67.129  33.044   67.277  34.629     67.421  36.208   66.046  36.575   64.694  36.983
    0.644 0.647
  2     68.796  35.840   70.195  35.512     71.595  35.229   71.582  33.619   71.569  32.003     71.556  30.381   70.020  30.692   68.486  31.051
    0.631 0.628
  2     73.092  30.070   74.630  29.809     76.147  29.600   76.023  31.245   75.901  32.884     75.781  34.517   74.398  34.707   72.996  34.946
    0.608 0.610
  2     77.165  34.326   78.529  34.184     79.853  34.093   80.101  32.447   80.354  30.794     80.612  29.135   79.160  29.235   77.664  29.391
    0.585 0.582
  2     82.064  29.034   83.473  28.989     84.816  29.000   84.432  30.663   84.054  32.320     83.686  33.969   82.461  33.960   81.177  34.001
    0.553 0.555
  2     84.911  33.979   86.076  34.040     87.164  34.151   87.642  32.507   88.132  30.856     88.630  29.199   87.437  29.077   86.159  29.011
    0.522 0.520
  2     89.823  29.321   90.932  29.497     91.939  29.726   91.341  31.368   90.754  33.003     90.181  34.632   89.263  34.423   88.252  34.262
    0.486 0.486
  2     91.099  34.841   91.925  35.097     92.646  35.398   93.297  33.793   93.963  32.182     94.642  30.566   93.851  30.237   92.946  29.955
    0.450 0.450
  2     95.432  30.895   96.107  31.273     96.657  31.692   95.918  33.275   95.192  34.852     94.483  36.425   93.982  36.042   93.366  35.698
    0.414 0.414
  2     94.984  36.807   95.371  37.228     95.637  37.682   96.383  36.149   97.146  34.612     97.922  33.071   97.630  32.574   97.206  32.112
    0.378 0.380
  2     98.215  33.568   98.375  34.101     98.401  34.660   97.610  36.153   96.832  37.644     96.073  39.131   96.050  38.621   95.904  38.135
    0.347 0.345
  2     96.097  39.641   95.998  40.176     95.778  40.728   96.528  39.291   97.295  37.852     98.077  36.412   98.318  35.807   98.426  35.220
    0.315 0.318
  2     97.835  37.017   97.461  37.640     96.960  38.272   96.212  39.657   95.478  41.041     94.760  42.424   95.217  41.848   95.558  41.280
    0.292 0.290
  2     94.303  43.001   93.730  43.585     93.051  44.169   93.714  42.841   94.394  41.513     95.086  40.185   95.831  39.545   96.459  38.904
    0.269 0.272
  2     94.340  40.825   93.477  41.464     92.510  42.092   91.895  43.363   91.291  44.635     90.702  45.908   91.584  45.335   92.371  44.752
    0.256 0.253
  0       46.078  46.929   46.854  48.055   47.617  49.184     48.363  50.318   48.096  49.865   47.950  49.379     47.927  48.869   47.168  47.689   46.390  46.513     45.599  45.340   45.625  45.899   45.785  46.432
    0.520 0.522 0.555 0.553
  2     45.574  44.780   45.682  44.193     45.923  43.588   46.705  44.814   47.472  46.042     48.222  47.272   48.002  47.824   47.903  48.359
    0.582 0.585
  2     48.442  46.720   48.783  46.152     49.240  45.576   48.522  44.292   47.788  43.009     47.040  41.728   46.539  42.360   46.165  42.983
    0.610 0.608
  2     47.541  41.096   48.169  40.455     48.914  39.815   49.606  41.154   50.286  42.493     50.949  43.831   50.270  44.415   49.697  44.999
    0.628 0.631
  2     51.629  43.248   52.416  42.665     53.298  42.092   52.709  40.699   52.105  39.304     51.490  37.908   50.523  38.536   49.660  39.175
    0.647 0.644
  2     52.458  37.279   53.530  36.661     54.690  36.064   55.208  37.515   55.718  38.964     56.216  40.411   55.158  40.956   54.181  41.519
    0.653 0.656
  2     57.273  39.866   58.412  39.339     59.613  38.839   59.222  37.343   58.822  35.843     58.415  34.340   57.098  34.888   55.850  35.466
    0.659 0.656
  0       59.613  38.839   60.003  40.335   60.384  41.827     60.753  43.314   61.844  42.859   62.992  42.429     64.179  42.029   63.923  40.500   63.658  38.964     63.386  37.423   62.078  37.864   60.814  38.338
    0.659 0.664 0.661 0.656
  2     64.694  36.983   66.046  36.575     67.421  36.208   67.565  37.787   67.706  39.360     67.843  40.925   66.594  41.259   65.367  41.629
    0.647 0.651
  2     69.091  40.591   70.361  40.294     71.632  40.037   71.620  38.442   71.608  36.839     71.595  35.229   70.195  35.512   68.796  35.840
    0.635 0.631
  2     72.996  34.946   74.398  34.707     75.781  34.517   75.662  36.149   75.546  37.774     75.433  39.390   74.177  39.563   72.904  39.779
    0.610 0.614
  2     76.689  39.217   77.928  39.088     79.130  39.005   79.364  37.377   79.605  35.738     79.853  34.093   78.529  34.184   77.165  34.326
    0.588 0.585
  2     81.177  34.001   82.461  33.960     83.686  33.969   83.317  35.619   82.958  37.261     82.610  38.893   81.498  38.884   80.332  38.922
    0.555 0.557
  2     83.722  38.902   84.780  38.957     85.768  39.058   86.219  37.431   86.686  35.795     87.164  34.151   86.076  34.040   84.911  33.979
    0.523 0.522
  2     88.252  34.262   89.263  34.423     90.181  34.632   89.608  36.261   89.048  37.882     88.507  39.495   87.673  39.305   86.755  39.159
    0.486 0.487
  2     89.341  39.684   90.090  39.917     90.745  40.190   91.359  38.600   91.995  37.002     92.646  35.398   91.925  35.097   91.099  34.841
    0.450 0.450
  2     93.366  35.698   93.982  36.042     94.483  36.425   93.774  37.997   93.082  39.563     92.413  41.122   91.958  40.775   91.399  40.462
    0.414 0.413
  2     92.868  41.470   93.219  41.852     93.461  42.264   94.164  40.742   94.892  39.214     95.637  37.682   95.371  37.228   94.984  36.807
    0.377 0.378
  2     95.904  38.135   96.050  38.621     96.073  39.131   95.314  40.618   94.573  42.101     93.857  43.579   93.835  43.116   93.703  42.675
    0.345 0.343
  2     93.878  44.042   93.788  44.528     93.588  45.029   94.296  43.598   95.028  42.164     95.778  40.728   95.998  40.176   96.097  39.641
    0.312 0.315
  2     95.558  41.280   95.217  41.848     94.760  42.424   94.042  43.807   93.342  45.189     92.664  46.569   93.079  46.046   93.389  45.530
    0.290 0.286
  2     92.250  47.093   91.730  47.623     91.112  48.153   91.739  46.825   92.387  45.497     93.051  44.169   93.730  43.585   94.303  43.001
    0.265 0.269
  2     92.371  44.752   91.584  45.335     90.702  45.908   90.112  47.181   89.536  48.456     88.980  49.732   89.780  49.212   90.495  48.683
    0.253 0.249
  0       47.927  48.869   48.686  50.049   49.427  51.232     50.143  52.421   50.122  51.958   50.212  51.472     50.412  50.971   49.704  49.735   48.972  48.502     48.222  47.272   48.002  47.824   47.903  48.359
    0.555 0.557 0.588 0.585
  2     48.442  46.720   48.783  46.152     49.240  45.576   49.958  46.859   50.658  48.144     51.336  49.431   50.921  49.954   50.611  50.470
    0.610 0.614
  2     51.750  48.907   52.270  48.377     52.888  47.847   52.261  46.508   51.613  45.170     50.949  43.831   50.270  44.415   49.697  44.999
    0.635 0.631
  2     51.629  43.248   52.416  42.665     53.298  42.092   53.888  43.486   54.464  44.878     55.020  46.268   54.220  46.788   53.505  47.317
    0.647 0.651
  2     55.821  45.747   56.709  45.236     57.669  44.741   57.199  43.301   56.713  41.857     56.216  40.411   55.158  40.956   54.181  41.519
    0.661 0.656
  2     57.273  39.866   58.412  39.339     59.613  38.839   60.003  40.335   60.384  41.827     60.753  43.314   59.663  43.768   58.629  44.246
    0.659 0.664
  0       60.753  43.314   61.122  44.801   61.478  46.283     61.818  47.757   62.805  47.346   63.844  46.956     64.919  46.594   64.683  45.080   64.435  43.558     64.179  42.029   62.992  42.429   61.844  42.859
    0.664 0.670 0.667 0.661
  2     65.367  41.629   66.594  41.259     67.843  40.925   67.979  42.490   68.111  44.048     68.236  45.595   67.106  45.897   65.994  46.232
    0.651 0.657
  2     69.366  45.293   70.516  45.023     71.667  44.790   71.656  43.217   71.644  41.631     71.632  40.037   70.361  40.294   69.091  40.591
    0.641 0.635
  2     72.904  39.779   74.177  39.563     75.433  39.390   75.321  41.006   75.212  42.612     75.108  44.205   73.971  44.361   72.818  44.557
    0.614 0.619
  2     76.245  44.048   77.367  43.931     78.455  43.856   78.670  42.251   78.896  40.633     79.130  39.005   77.928  39.088   76.689  39.217
    0.592 0.588
  2     80.332  38.922   81.498  38.884     82.610  38.893   82.262  40.525   81.926  42.147     81.606  43.755   80.599  43.747   79.544  43.781
    0.557 0.560
  2     82.612  43.763   83.570  43.813     84.465  43.904   84.880  42.301   85.316  40.685     85.768  39.058   84.780  38.957   83.722  38.902
    0.525 0.523
  2     86.755  39.159   87.673  39.305     88.507  39.495   87.966  41.107   87.443  42.710     86.945  44.300   86.190  44.128   85.359  43.996
    0.487 0.488
  2     87.699  44.471   88.378  44.682     88.971  44.929   89.536  43.360   90.130  41.779     90.745  40.190   90.090  39.917   89.341  39.684
    0.450 0.450
  2     91.399  40.462   91.958  40.775     92.413  41.122   91.744  42.681   91.097  44.232     90.481  45.773   90.069  45.459   89.563  45.176
    0.413 0.412
  2     90.893  46.088   91.211  46.434     91.430  46.806   92.077  45.300   92.757  43.785     93.461  42.264   93.219  41.852   92.868  41.470
    0.375 0.377
  2     93.703  42.675   93.835  43.116     93.857  43.579   93.140  45.057   92.448  46.531     91.788  47.998   91.769  47.578   91.649  47.179
    0.343 0.340
  2     91.807  48.417   91.726  48.857     91.545  49.310   92.197  47.887   92.881  46.460     93.588  45.029   93.788  44.528   93.878  44.042
    0.308 0.312
  2     93.389  45.530   93.079  46.046     92.664  46.569   91.987  47.950   91.332  49.328     90.709  50.705   91.084  50.231   91.364  49.764
    0.286 0.281
  2     90.333  51.179   89.862  51.659     89.303  52.139   89.880  50.810   90.486  49.482     91.112  48.153   91.730  47.623   92.250  47.093
    0.259 0.265
  2     90.495  48.683   89.780  49.212     88.980  49.732   88.423  51.009   87.885  52.287     87.373  53.568   88.098  53.097   88.745  52.618
    0.249 0.243
  0       50.143  52.421   50.860  53.609   51.552  54.802     52.212  56.002   52.193  55.583   52.274  55.143     52.455  54.690   51.803  53.446   51.119  52.207     50.412  50.971   50.212  51.472   50.122  51.958
    0.557 0.560 0.592 0.588
  2     50.611  50.470   50.921  49.954     51.336  49.431   52.013  50.717   52.668  52.005     53.291  53.295   52.916  53.769   52.636  54.236
    0.614 0.619
  2     53.667  52.821   54.138  52.341     54.697  51.861   54.120  50.523   53.514  49.185     52.888  47.847   52.270  48.377   51.750  48.907
    0.641 0.635
  2     53.505  47.317   54.220  46.788     55.020  46.268   55.577  47.658   56.115  49.046     56.627  50.432   55.902  50.903   55.255  51.382
    0.651 0.657
  2     57.353  49.961   58.156  49.498     59.025  49.050   58.593  47.618   58.139  46.181     57.669  44.741   56.709  45.236   55.821  45.747
    0.667 0.661
  2     58.629  44.246   59.663  43.768     60.753  43.314   61.122  44.801   61.478  46.283     61.818  47.757   60.830  48.169   59.895  48.602
    0.664 0.670
  0       61.818  47.757   62.157  49.232   62.480  50.700     62.780  52.158   63.674  51.786   64.615  51.433     65.588  51.105   65.380  49.612   65.155  48.107     64.919  46.594   63.844  46.956   62.805  47.346
    0.670 0.679 0.676 0.667
  2     65.994  46.232   67.106  45.897     68.236  45.595   68.361  47.142   68.481  48.678     68.592  50.200   67.568  50.473   66.562  50.777
    0.657 0.665
  2     69.615  49.926   70.656  49.682     71.699  49.471   71.689  47.926   71.678  46.364     71.667  44.790   70.516  45.023   69.366  45.293
    0.648 0.641
  2     72.818  44.557   73.971  44.361     75.108  44.205   75.005  45.798   74.906  47.378     74.815  48.941   73.785  49.083   72.741  49.260
    0.619 0.625
  2     75.844  48.799   76.860  48.694     77.845  48.625   78.035  47.052   78.240  45.461     78.455  43.856   77.367  43.931   76.245  44.048
    0.597 0.592
  2     79.544  43.781   80.599  43.747     81.606  43.755   81.286  45.363   80.981  46.958     80.698  48.534   79.787  48.526   78.831  48.557
    0.560 0.564
  2     81.610  48.541   82.477  48.586     83.287  48.669   83.654  47.097   84.049  45.507     84.465  43.904   83.570  43.813   82.612  43.763
    0.528 0.525
  2     85.359  43.996   86.190  44.128     86.945  44.300   86.446  45.890   85.973  47.467     85.533  49.027   84.849  48.872   84.097  48.752
    0.488 0.490
  2     86.216  49.182   86.831  49.373     87.367  49.597   87.867  48.055   88.405  46.498     88.971  44.929   88.378  44.682   87.699  44.471
    0.450 0.450
  2     89.563  45.176   90.069  45.459     90.481  45.773   89.865  47.314   89.279  48.845     88.735  50.361   88.362  50.076   87.904  49.820
    0.412 0.410
  2     89.108  50.646   89.396  50.960     89.594  51.297   90.166  49.811   90.782  48.313     91.430  46.806   91.211  46.434   90.893  46.088
    0.372 0.375
  2     91.649  47.179   91.769  47.578     91.788  47.998   91.129  49.464   90.502  50.924     89.919  52.376   89.901  51.996   89.793  51.634
    0.340 0.336
  2     89.936  52.755   89.863  53.154     89.699  53.564   90.275  52.152   90.894  50.733     91.545  49.310   91.726  48.857   91.807  48.417
    0.303 0.308
  2     91.364  49.764   91.084  50.231     90.709  50.705   90.085  52.081   89.492  53.456     88.941  54.827   89.281  54.398   89.535  53.975
    0.281 0.275
  2     88.601  55.256   88.175  55.691     87.669  56.126   88.178  54.796   88.727  53.467     89.303  52.139   89.862  51.659   90.333  51.179
    0.252 0.259
  2     88.745  52.618   88.098  53.097     87.373  53.568   86.860  54.849   86.373  56.133     85.920  57.420   86.577  56.994   87.163  56.560
    0.243 0.235
  0       52.212  56.002   52.871  57.202   53.498  58.409     54.081  59.624   54.064  59.245   54.137  58.846     54.301  58.436   53.725  57.181   53.106  55.933     52.455  54.690   52.274  55.143   52.193  55.583
    0.560 0.564 0.597 0.592
  2     52.636  54.236   52.916  53.769     53.291  53.295   53.915  54.585   54.508  55.878     55.059  57.173   54.719  57.602   54.465  58.025
    0.619 0.625
  2     55.399  56.744   55.825  56.309     56.331  55.874   55.822  54.537   55.273  53.199     54.697  51.861   54.138  52.341   53.667  52.821
    0.648 0.641
  2     55.255  51.382   55.902  50.903     56.627  50.432   57.140  51.817   57.627  53.200     58.080  54.580   57.423  55.006   56.837  55.440
    0.657 0.665
  2     58.736  54.153   59.464  53.734     60.251  53.328   59.869  51.908   59.458  50.481     59.025  49.050   58.156  49.498   57.353  49.961
    0.676 0.667
  2     59.895  48.602   60.830  48.169     61.818  47.757   62.157  49.232   62.480  50.700     62.780  52.158   61.885  52.531   61.038  52.923
    0.670 0.679
  0       62.780  52.158   63.079  53.616   63.356  55.065     63.603  56.501   64.418  56.162   65.274  55.841     66.161  55.542   65.989  54.078   65.797  52.597     65.588  51.105   64.615  51.433   63.674  51.786
    0.679 0.690 0.686 0.676
  2     66.562  50.777   67.568  50.473     68.592  50.200   68.702  51.722   68.805  53.229     68.896  54.718   67.964  54.967   67.048  55.243
    0.665 0.676
  2     69.828  54.469   70.776  54.247     71.725  54.055   71.717  52.546   71.708  51.017     71.699  49.471   70.656  49.682   69.615  49.926
    0.658 0.648
  2     72.741  49.260   73.785  49.083     74.815  48.941   74.723  50.504   74.639  52.049     74.563  53.572   73.626  53.701   72.675  53.863
    0.625 0.634
  2     75.501  53.443   76.425  53.347     77.323  53.284   77.480  51.754   77.655  50.199     77.845  48.625   76.860  48.694   75.844  48.799
    0.604 0.597
  2     78.831  48.557   79.787  48.526     80.698  48.534   80.416  50.110   80.154  51.668     79.921  53.201   79.091  53.194   78.221  53.222
    0.564 0.570
  2     80.751  53.208   81.541  53.249     82.279  53.324   82.581  51.794   82.920  50.241     83.287  48.669   82.477  48.586   81.610  48.541
    0.532 0.528
  2     84.097  48.752   84.849  48.872     85.533  49.027   85.093  50.587   84.686  52.130     84.324  53.650   83.701  53.509   83.016  53.399
    0.490 0.492
  2     84.946  53.792   85.506  53.966     85.994  54.169   86.406  52.664   86.868  51.138     87.367  49.597   86.831  49.373   86.216  49.182
    0.450 0.450
  2     87.904  49.820   88.362  50.076     88.735  50.361   88.191  51.878   87.688  53.381     87.240  54.865   86.900  54.606   86.483  54.373
    0.410 0.408
  2     87.579  55.125   87.842  55.410     88.022  55.717   88.493  54.258   89.022  52.783     89.594  51.297   89.396  50.960   89.108  50.646
    0.368 0.372
  2     89.793  51.634   89.901  51.996     89.919  52.376   89.336  53.827   88.798  55.269     88.318  56.700   88.302  56.354   88.203  56.025
    0.336 0.330
  2     88.334  57.045   88.267  57.408     88.117  57.782   88.591  56.384   89.123  54.977     89.699  53.564   89.863  53.154   89.936  52.755
    0.296 0.303
  2     89.535  53.975   89.281  54.398     88.941  54.827   88.390  56.199   87.881  57.567     87.427  58.932   87.737  58.541   87.968  58.156
    0.275 0.266
  2     87.118  59.323   86.730  59.719     86.269  60.114   86.688  58.784   87.159  57.455     87.669  56.126   88.175  55.691   88.601  55.256
    0.242 0.252
  2     87.163  56.560   86.577  56.994     85.920  57.420   85.468  58.707   85.049  59.998     84.677  61.293   85.275  60.905   85.808  60.510
    0.235 0.224
  0       54.081  59.624   54.664  60.840   55.202  62.064     55.682  63.300   55.666  62.955   55.733  62.592     55.883  62.218   55.409  60.950   54.877  59.690     54.301  58.436   54.137  58.846   54.064  59.245
    0.564 0.570 0.604 0.597
  2     54.465  58.025   54.719  57.602     55.059  57.173   55.610  58.468   56.119  59.766     56.573  61.068   56.263  61.459   56.032  61.844
    0.625 0.634
  2     56.882  60.677   57.270  60.281     57.731  59.886   57.312  58.549   56.841  57.212     56.331  55.874   55.825  56.309   55.399  56.744
    0.658 0.648
  2     56.837  55.440   57.423  55.006     58.080  54.580   58.532  55.959   58.951  57.335     59.323  58.707   58.725  59.095   58.192  59.490
    0.665 0.676
  2     59.921  58.318   60.584  57.937     61.301  57.567   60.986  56.162   60.633  54.749     60.251  53.328   59.464  53.734   58.736  54.153
    0.686 0.676
  2     61.038  52.923   61.885  52.531     62.780  52.158   63.079  53.616   63.356  55.065     63.603  56.501   62.789  56.841   62.018  57.198
    0.679 0.690
  0       63.603  56.501   63.850  57.938   64.067  59.361     64.245  60.769   64.997  60.456   65.789  60.159     66.607  59.883   66.484  58.455   66.333  57.006     66.161  55.542   65.274  55.841   64.418  56.162
    0.690 0.703 0.699 0.686
  2     67.048  55.243   67.964  54.967     68.896  54.718   68.987  56.207   69.068  57.676     69.133  59.122   68.273  59.352   67.426  59.607
    0.676 0.688
  2     69.994  58.892   70.870  58.687     71.746  58.509   71.741  57.050   71.734  55.563     71.725  54.055   70.776  54.247   69.828  54.469
    0.669 0.658
  2     72.675  53.863   73.626  53.701     74.563  53.572   74.488  55.094   74.422  56.594     74.367  58.063   73.501  58.182   72.623  58.332
    0.634 0.644
  2     75.233  57.944   76.087  57.855     76.916  57.798   77.029  56.322   77.166  54.815     77.323  53.284   76.425  53.347   75.501  53.443
    0.613 0.604
  2     78.221  53.222   79.091  53.194     79.921  53.201   79.688  54.734   79.484  56.243     79.316  57.721   78.549  57.715   77.745  57.740
    0.570 0.577
  2     80.082  57.727   80.812  57.765     81.493  57.834   81.711  56.359   81.976  54.854     82.279  53.324   81.541  53.249   80.751  53.208
    0.537 0.532
  2     83.016  53.399   83.701  53.509     84.324  53.650   83.961  55.170   83.643  56.667     83.381  58.136   82.807  58.005   82.174  57.904
    0.492 0.494
  2     83.956  58.266   84.473  58.427     84.924  58.615   85.222  57.158   85.583  55.674     85.994  54.169   85.506  53.966   84.946  53.792
    0.450 0.450
  2     86.483  54.373   86.900  54.606     87.240  54.865   86.792  56.350   86.398  57.815     86.075  59.258   85.761  59.018   85.376  58.803
    0.408 0.406
  2     86.388  59.497   86.630  59.761     86.797  60.045   87.137  58.620   87.551  57.177     88.022  55.717   87.842  55.410   87.579  55.125
    0.363 0.368
  2     88.203  56.025   88.302  56.354     88.318  56.700   87.838  58.130   87.417  59.548     87.070  60.952   87.055  60.632   86.964  60.328
    0.330 0.323
  2     87.085  61.271   87.023  61.606     86.885  61.952   87.227  60.571   87.643  59.181     88.117  57.782   88.267  57.408   88.334  57.045
    0.287 0.296
  2     87.968  58.156   87.737  58.541     87.427  58.932   86.974  60.297   86.576  61.658     86.248  63.014   86.534  62.653   86.748  62.297
    0.266 0.256
  2     85.962  63.374   85.604  63.740     85.178  64.106   85.481  62.775   85.849  61.444     86.269  60.114   86.730  59.719   87.118  59.323
    0.231 0.242
  0       55.682  63.300   56.162  64.537   56.583  65.785     56.930  67.048   56.915  66.729   56.977  66.394     57.115  66.048   56.773  64.762   56.357  63.486     55.883  62.218   55.733  62.592   55.666  62.955
    0.570 0.577 0.613 0.604
  2     56.032  61.844   56.263  61.459     56.573  61.068   57.026  62.370   57.424  63.676     57.752  64.986   57.466  65.347   57.252  65.703
    0.634 0.644
  2     58.038  64.626   58.396  64.260     58.822  63.894   58.519  62.559   58.151  61.222     57.731  59.886   57.270  60.281   56.882  60.677
    0.669 0.658
  2     58.192  59.490   58.725  59.095     59.323  58.707   59.696  60.078   60.023  61.445     60.293  62.806   59.740  63.164   59.248  63.529
    0.676 0.688
  2     60.845  62.447   61.457  62.094     62.119  61.753   61.892  60.368   61.616  58.972     61.301  57.567   60.584  57.937   59.921  58.318
    0.699 0.686
  2     62.018  57.198   62.789  56.841     63.603  56.501   63.850  57.938   64.067  59.361     64.245  60.769   63.493  61.082   62.781  61.412
    0.690 0.703
  0       64.245  60.769   64.424  62.177   64.563  63.568     64.657  64.941   65.369  64.644   66.119  64.363     66.894  64.102   66.829  62.718   66.731  61.311     66.607  59.883   65.789  60.159   64.997  60.456
    0.703 0.715 0.711 0.699
  2     67.426  59.607   68.273  59.352     69.133  59.122   69.199  60.567   69.251  61.989     69.286  63.381   68.471  63.599   67.669  63.840
    0.688 0.699
  2     70.101  63.163   70.930  62.969     71.760  62.801   71.757  61.401   71.752  59.969     71.746  58.509   70.870  58.687   69.994  58.892
    0.679 0.669
  2     72.623  58.332   73.501  58.182     74.367  58.063   74.313  59.533   74.270  60.973     74.241  62.379   73.421  62.492   72.590  62.633
    0.644 0.653
  2     75.061  62.266   75.870  62.182     76.655  62.127   76.715  60.719   76.803  59.274     76.916  57.798   76.087  57.855   75.233  57.944
    0.620 0.613
  2     77.745  57.740   78.549  57.715     79.316  57.721   79.147  59.198   79.016  60.645     78.927  62.054   78.201  62.049   77.440  62.073
    0.577 0.582
  2     79.653  62.060   80.343  62.096     80.988  62.162   81.104  60.754   81.274  59.310     81.493  57.834   80.812  57.765   80.082  57.727
    0.541 0.537
  2     82.174  57.904   82.807  58.005     83.381  58.136   83.120  59.604   82.915  61.043     82.777  62.447   82.232  62.323   81.633  62.228
    0.494 0.496
  2     83.321  62.571   83.810  62.723     84.238  62.901   84.395  61.502   84.627  60.072     84.924  58.615   84.473  58.427   83.956  58.266
    0.450 0.450
  2     85.376  58.803   85.761  59.018     86.075  59.258   85.751  60.700   85.498  62.119     85.327  63.510   85.030  63.283   84.665  63.079
    0.406 0.404
  2     85.624  63.737   85.853  63.986     86.011  64.255   86.191  62.874   86.457  61.469     86.797  60.045   86.630  59.761   86.388  59.497
    0.359 0.363
  2     86.964  60.328   87.055  60.632     87.070  60.952   86.724  62.355   86.452  63.743     86.269  65.114   86.255  64.811   86.169  64.524
    0.323 0.318
  2     86.283  65.416   86.225  65.733     86.094  66.060   86.275  64.702   86.543  63.332     86.885  61.952   87.023  61.606   87.085  61.271
    0.280 0.287
  2     86.748  62.297   86.534  62.653     86.248  63.014   85.920  64.370   85.664  65.721     85.491  67.066   85.762  66.724   85.964  66.388
    0.256 0.247
  2     85.220  67.408   84.881  67.754     84.478  68.100   84.638  66.768   84.875  65.437     85.178  64.106   85.604  63.740   85.962  63.374
    0.221 0.231
  0       57.115  66.048   57.457  67.335   57.725  68.631     57.906  69.940   58.036  69.612   58.238  69.276     58.509  68.934   58.336  67.613   58.080  66.297     57.752  64.986   57.466  65.347   57.252  65.703
    0.613 0.620 0.653 0.644
  2     58.038  64.626   58.396  64.260     58.822  63.894   59.125  65.230   59.362  66.565     59.522  67.900   59.119  68.246   58.780  68.592
    0.669 0.679
  2     59.925  67.554   60.392  67.209     60.915  66.869   60.773  65.521   60.562  64.166     60.293  62.806   59.740  63.164   59.248  63.529
    0.699 0.688
  2     60.845  62.447   61.457  62.094     62.119  61.753   62.346  63.138   62.524  64.512     62.644  65.873   62.017  66.196   61.438  66.529
    0.699 0.711
  2     63.271  65.549   63.945  65.237     64.657  64.941   64.563  63.568   64.424  62.177     64.245  60.769   63.493  61.082   62.781  61.412
    0.715 0.703
  0       64.657  64.941   64.752  66.313   64.800  67.667     64.800  69.000   65.498  68.709   66.233  68.433     66.993  68.177   66.993  66.844   66.959  65.485     66.894  64.102   66.119  64.363   65.369  64.644
    0.715 0.720 0.716 0.711
  2     67.669  63.840   68.471  63.599     69.286  63.381   69.321  64.774   69.338  66.137     69.338  67.471   68.539  67.684   67.753  67.921
    0.699 0.704
  2     70.138  67.257   70.951  67.067     71.765  66.902   71.765  65.569   71.763  64.201     71.760  62.801   70.930  62.969   70.101  63.163
    0.684 0.679
  2     72.590  62.633   73.421  62.492     74.241  62.379   74.213  63.784   74.198  65.155     74.198  66.488   73.394  66.599   72.579  66.737
    0.653 0.657
  2     75.002  66.377   75.795  66.295     76.564  66.241   76.564  64.908   76.595  63.536     76.655  62.127   75.870  62.182   75.061  62.266
    0.624 0.620
  2     77.440  62.073   78.201  62.049     78.927  62.054   78.838  63.464   78.792  64.837     78.792  66.170   78.080  66.164   77.334  66.188
    0.582 0.585
  2     79.504  66.176   80.181  66.211     80.814  66.275   80.814  64.942   80.873  63.570     80.988  62.162   80.343  62.096   79.653  62.060
    0.542 0.541
  2     81.633  62.228   82.232  62.323     82.777  62.447   82.639  63.852   82.567  65.222     82.567  66.555   82.034  66.434   81.446  66.340
    0.496 0.497
  2     83.101  66.676   83.581  66.825     84.000  67.000   84.000  65.667   84.081  64.300     84.238  62.901   83.810  62.723   83.321  62.571
    0.450 0.450
  2     84.665  63.079   85.030  63.283     85.327  63.510   85.156  64.901   85.068  66.264     85.068  67.597   84.777  67.375   84.419  67.175
    0.404 0.403
  2     85.359  67.819   85.584  68.064     85.739  68.328   85.739  66.994   85.831  65.636     86.011  64.255   85.853  63.986   85.624  63.737
    0.358 0.359
  2     86.169  64.524   86.255  64.811     86.269  65.114   86.086  66.484   85.992  67.837     85.992  69.170   85.979  68.873   85.894  68.591
    0.318 0.315
  2     86.006  69.466   85.948  69.777     85.821  70.098   85.821  68.765   85.914  67.419     86.094  66.060   86.225  65.733   86.283  65.416
    0.276 0.280
  2     85.964  66.388   85.762  66.724     85.491  67.066   85.318  68.411   85.229  69.751     85.229  71.084   85.495  70.749   85.693  70.419
    0.247 0.243
  2     84.963  71.419   84.631  71.759     84.235  72.098   84.235  70.765   84.318  69.432     84.478  68.100   84.881  67.754   85.220  67.408
    0.216 0.221
  0       57.906  69.940   58.086  71.248   58.179  72.569     58.179  73.902   58.307  73.581   58.505  73.251     58.771  72.916   58.771  71.582   58.682  70.255     58.509  68.934   58.238  69.276   58.036  69.612
    0.620 0.624 0.657 0.653
  2     58.780  68.592   59.119  68.246     59.522  67.900   59.682  69.235   59.765  70.569     59.765  71.902   59.369  72.241   59.037  72.581
    0.679 0.684
  2     60.160  71.563   60.617  71.224     61.130  70.891   61.130  69.558   61.057  68.217     60.915  66.869   60.392  67.209   59.925  67.554
    0.704 0.699
  2     61.438  66.529   62.017  66.196     62.644  65.873   62.764  67.233   62.826  68.580     62.826  69.914   62.211  70.231   61.643  70.558
    0.711 0.716
  2     63.440  69.597   64.102  69.291     64.800  69.000   64.800  67.667   64.752  66.313     64.657  64.941   63.945  65.237   63.271  65.549
    0.720 0.715
  0       64.800  69.000   64.800  70.333   64.752  71.646     64.657  72.941   65.369  72.644   66.119  72.363     66.894  72.102   66.959  70.818   66.993  69.511     66.993  68.177   66.233  68.433   65.498  68.709
    0.720 0.715 0.711 0.716
  2     67.753  67.921   68.539  67.684     69.338  67.471   69.338  68.804   69.321  70.107     69.286  71.381   68.471  71.599   67.669  71.840
    0.704 0.699
  2     70.101  71.163   70.930  70.969     71.760  70.801   71.763  69.534   71.765  68.235     71.765  66.902   70.951  67.067   70.138  67.257
    0.679 0.684
  2     72.579  66.737   73.394  66.599     74.198  66.488   74.198  67.821   74.213  69.118     74.241  70.379   73.421  70.492   72.590  70.633
    0.657 0.653
  2     75.061  70.266   75.870  70.182     76.655  70.127   76.595  68.869   76.564  67.575     76.564  66.241   75.795  66.295   75.002  66.377
    0.620 0.624
  2     77.334  66.188   78.080  66.164     78.792  66.170   78.792  67.503   78.838  68.797     78.927  70.054   78.201  70.049   77.440  70.073
    0.585 0.582
  2     79.653  70.060   80.343  70.096     80.988  70.162   80.873  68.904   80.814  67.609     80.814  66.275   80.181  66.211   79.504  66.176
    0.541 0.542
  2     81.446  66.340   82.034  66.434     82.567  66.555   82.567  67.888   82.639  69.185     82.777  70.447   82.232  70.323   81.633  70.228
    0.497 0.496
  2     83.321  70.571   83.810  70.723     84.238  70.901   84.081  69.633   84.000  68.333     84.000  67.000   83.581  66.825   83.101  66.676
    0.450 0.450
  2     84.419  67.175   84.777  67.375     85.068  67.597   85.068  68.930   85.156  70.234     85.327  71.510   85.030  71.283   84.665  71.079
    0.403 0.404
  2     85.624  71.737   85.853  71.986     86.011  72.255   85.831  70.970   85.739  69.661     85.739  68.328   85.584  68.064   85.359  67.819
    0.359 0.358
  2     85.894  68.591   85.979  68.873     85.992  69.170   85.992  70.503   86.086  71.817     86.269  73.114   86.255  72.811   86.169  72.524
    0.315 0.318
  2     86.283  73.416   86.225  73.733     86.094  74.060   85.914  72.752   85.821  71.431     85.821  70.098   85.948  69.777   86.006  69.466
    0.280 0.276
  2     85.693  70.419   85.495  70.749     85.229  71.084   85.229  72.418   85.318  73.745     85.491  75.066   85.762  74.724   85.964  74.388
    0.243 0.247
  0       58.179  73.902   58.179  75.235   58.086  76.581     57.906  77.940   58.036  77.612   58.238  77.276     58.509  76.934   58.682  75.589   58.771  74.249     58.771  72.916   58.505  73.251   58.307  73.581
    0.624 0.620 0.653 0.657
  2     59.037  72.581   59.369  72.241     59.765  71.902   59.765  73.235   59.682  74.568     59.522  75.900   59.119  76.246   58.780  76.592
    0.684 0.679
  2     59.925  75.554   60.392  75.209     60.915  74.869   61.057  73.550   61.130  72.224     61.130  70.891   60.617  71.224   60.160  71.563
    0.699 0.704
  2     61.643  70.558   62.211  70.231     62.826  69.914   62.826  71.247   62.764  72.566     62.644  73.873   62.017  74.196   61.438  74.529
    0.716 0.711
  2     63.271  73.549   63.945  73.237     64.657  72.941   64.752  71.646   64.800  70.333     64.800  69.000   64.102  69.291   63.440  69.597
    0.715 0.720
  0       64.657  72.941   64.563  74.235   64.424  75.510     64.245  76.769   64.997  76.456   65.789  76.159     66.607  75.883   66.731  74.644   66.829  73.385     66.894  72.102   66.119  72.363   65.369  72.644
    0.715 0.703 0.699 0.711
  2     67.669  71.840   68.471  71.599     69.286  71.381   69.251  72.655   69.199  73.901     69.133  75.122   68.273  75.352   67.426  75.607
    0.699 0.688
  2     69.994  74.892   70.870  74.687     71.746  74.509   71.752  73.302   71.757  72.068     71.760  70.801   70.930  70.969   70.101  71.163
    0.669 0.679
  2     72.590  70.633   73.421  70.492     74.241  70.379   74.270  71.640   74.313  72.866     74.367  74.063   73.501  74.182   72.623  74.332
    0.653 0.644
  2     75.233  73.944   76.087  73.855     76.916  73.798   76.803  72.607   76.715  71.385     76.655  70.127   75.870  70.182   75.061  70.266
    0.613 0.620
  2     77.440  70.073   78.201  70.049     78.927  70.054   79.016  71.312   79.147  72.532     79.316  73.721   78.549  73.715   77.745  73.740
    0.582 0.577
  2     80.082  73.727   80.812  73.765     81.493  73.834   81.274  72.643   81.104  71.421     80.988  70.162   80.343  70.096   79.653  70.060
    0.537 0.541
  2     81.633  70.228   82.232  70.323     82.777  70.447   82.915  71.709   83.120  72.937     83.381  74.136   82.807  74.005   82.174  73.904
    0.496 0.494
  2     83.956  74.266   84.473  74.427     84.924  74.615   84.627  73.405   84.395  72.169     84.238  70.901   83.810  70.723   83.321  70.571
    0.450 0.450
  2     84.665  71.079   85.030  71.283     85.327  71.510   85.498  72.785   85.751  74.033     86.075  75.258   85.761  75.018   85.376  74.803
    0.404 0.406
  2     86.388  75.497   86.630  75.761     86.797  76.045   86.457  74.802   86.191  73.540     86.011  72.255   85.853  71.986   85.624  71.737
    0.363 0.359
  2     86.169  72.524   86.255  72.811     86.269  73.114   86.452  74.410   86.724  75.689     87.070  76.952   87.055  76.632   86.964  76.328
    0.318 0.323
  2     87.085  77.271   87.023  77.606     86.885  77.952   86.543  76.665   86.275  75.369     86.094  74.060   86.225  73.733   86.283  73.416
    0.287 0.280
  2     85.964  74.388   85.762  74.724     85.491  75.066   85.664  76.387   85.920  77.703     86.248  79.014   86.534  78.653   86.748  78.297
    0.247 0.256
  0       58.509  76.934   58.336  78.279   58.080  79.630     57.752  80.986   58.038  80.626   58.396  80.260     58.822  79.894   59.125  78.563   59.362  77.232     59.522  75.900   59.119  76.246   58.780  76.592
    0.653 0.644 0.669 0.679
  2     59.925  75.554   60.392  75.209     60.915  74.869   60.773  76.188   60.562  77.500     60.293  78.806   59.740  79.164   59.248  79.529
    0.699 0.688
  2     60.845  78.447   61.457  78.094     62.119  77.753   62.346  76.471   62.524  75.179     62.644  73.873   62.017  74.196   61.438  74.529
    0.699 0.711
  2     63.271  73.549   63.945  73.237     64.657  72.941   64.563  74.235   64.424  75.510     64.245  76.769   63.493  77.082   62.781  77.412
    0.715 0.703
  0       64.245  76.769   64.067  78.028   63.850  79.271     63.603  80.501   64.418  80.162   65.274  79.841     66.161  79.542   66.333  78.340   66.484  77.122     66.607  75.883   65.789  76.159   64.997  76.456
    0.703 0.690 0.686 0.699
  2     67.426  75.607   68.273  75.352     69.133  75.122   69.068  76.343   68.987  77.540     68.896  78.718   67.964  78.967   67.048  79.243
    0.688 0.676
  2     69.828  78.469   70.776  78.247     71.725  78.055   71.734  76.896   71.741  75.716     71.746  74.509   70.870  74.687   69.994  74.892
    0.658 0.669
  2     72.623  74.332   73.501  74.182     74.367  74.063   74.422  75.260   74.488  76.428     74.563  77.572   73.626  77.701   72.675  77.863
    0.644 0.634
  2     75.501  77.443   76.425  77.347     77.323  77.284   77.166  76.149   77.029  74.989     76.916  73.798   76.087  73.855   75.233  73.944
    0.604 0.613
  2     77.745  73.740   78.549  73.715     79.316  73.721   79.484  74.910   79.688  76.068     79.921  77.201   79.091  77.194   78.221  77.222
    0.577 0.570
  2     80.751  77.208   81.541  77.249     82.279  77.324   81.976  76.187   81.711  75.026     81.493  73.834   80.812  73.765   80.082  73.727
    0.532 0.537
  2     82.174  73.904   82.807  74.005     83.381  74.136   83.643  75.334   83.961  76.504     84.324  77.650   83.701  77.509   83.016  77.399
    0.494 0.492
  2     84.946  77.792   85.506  77.966     85.994  78.169   85.583  77.007   85.222  75.824     84.924  74.615   84.473  74.427   83.956  74.266
    0.450 0.450
  2     85.376  74.803   85.761  75.018     86.075  75.258   86.398  76.482   86.792  77.683     87.240  78.865   86.900  78.606   86.483  78.373
    0.406 0.408
  2     87.579  79.125   87.842  79.410     88.022  79.717   87.551  78.510   87.137  77.287     86.797  76.045   86.630  75.761   86.388  75.497
    0.368 0.363
  2     86.964  76.328   87.055  76.632     87.070  76.952   87.417  78.215   87.838  79.463     88.318  80.700   88.302  80.354   88.203  80.025
    0.323 0.330
  2     88.334  81.045   88.267  81.408     88.117  81.782   87.643  80.514   87.227  79.238     86.885  77.952   87.023  77.606   87.085  77.271
    0.296 0.287
  2     86.748  78.297   86.534  78.653     86.248  79.014   86.576  80.324   86.974  81.630     87.427  82.932   87.737  82.541   87.968  82.156
    0.256 0.266
  0       57.752  80.986   57.424  82.342   57.026  83.703     56.573  85.068   56.882  84.677   57.270  84.281     57.731  83.886   58.151  82.556   58.519  81.225     58.822  79.894   58.396  80.260   58.038  80.626
    0.644 0.634 0.658 0.669
  2     59.248  79.529   59.740  79.164     60.293  78.806   60.023  80.111   59.696  81.411     59.323  82.707   58.725  83.095   58.192  83.490
    0.688 0.676
  2     59.921  82.318   60.584  81.937     61.301  81.567   61.616  80.305   61.892  79.035     62.119  77.753   61.457  78.094   60.845  78.447
    0.686 0.699
  2     62.781  77.412   63.493  77.082     64.245  76.769   64.067  78.028   63.850  79.271     63.603  80.501   62.789  80.841   62.018  81.198
    0.703 0.690
  0       63.603  80.501   63.356  81.732   63.079  82.950     62.780  84.158   63.674  83.786   64.615  83.433     65.588  83.105   65.797  81.930   65.989  80.744     66.161  79.542   65.274  79.841   64.418  80.162
    0.690 0.679 0.676 0.686
  2     67.048  79.243   67.964  78.967     68.896  78.718   68.805  79.896   68.702  81.055     68.592  82.200   67.568  82.473   66.562  82.777
    0.676 0.665
  2     69.615  81.926   70.656  81.682     71.699  81.471   71.708  80.350   71.717  79.213     71.725  78.055   70.776  78.247   69.828  78.469
    0.648 0.658
  2     72.675  77.863   73.626  77.701     74.563  77.572   74.639  78.716   74.723  79.837     74.815  80.941   73.785  81.083   72.741  81.260
    0.634 0.625
  2     75.844  80.799   76.860  80.694     77.845  80.625   77.655  79.532   77.480  78.420     77.323  77.284   76.425  77.347   75.501  77.443
    0.597 0.604
  2     78.221  77.222   79.091  77.194     79.921  77.201   80.154  78.334   80.416  79.443     80.698  80.534   79.787  80.526   78.831  80.557
    0.570 0.564
  2     81.610  80.541   82.477  80.586     83.287  80.669   82.920  79.574   82.581  78.461     82.279  77.324   81.541  77.249   80.751  77.208
    0.528 0.532
  2     83.016  77.399   83.701  77.509     84.324  77.650   84.686  78.797   85.093  79.920     85.533  81.027   84.849  80.872   84.097  80.752
    0.492 0.490
  2     86.216  81.182   86.831  81.373     87.367  81.597   86.868  80.472   86.406  79.331     85.994  78.169   85.506  77.966   84.946  77.792
    0.450 0.450
  2     86.483  78.373   86.900  78.606     87.240  78.865   87.688  80.047   88.191  81.211     88.735  82.361   88.362  82.076   87.904  81.820
    0.408 0.410
  2     89.108  82.646   89.396  82.960     89.594  83.297   89.022  82.117   88.493  80.925     88.022  79.717   87.842  79.410   87.579  79.125
    0.372 0.368
  2     88.203  80.025   88.302  80.354     88.318  80.700   88.798  81.936   89.336  83.160     89.919  84.376   89.901  83.996   89.793  83.634
    0.330 0.336
  2     89.936  84.755   89.863  85.154     89.699  85.564   89.123  84.310   88.591  83.050     88.117  81.782   88.267  81.408   88.334  81.045
    0.303 0.296
  0       56.573  85.068   56.119  86.433   55.610  87.801     55.059  89.173   55.399  88.744   55.825  88.309     56.331  87.874   56.841  86.545   57.312  85.216     57.731  83.886   57.270  84.281   56.882  84.677
    0.634 0.625 0.648 0.658
  2     58.192  83.490   58.725  83.095     59.323  82.707   58.951  84.002   58.532  85.293     58.080  86.580   57.423  87.006   56.837  87.440
    0.676 0.665
  2     58.736  86.153   59.464  85.734     60.251  85.328   60.633  84.082   60.986  82.829     61.301  81.567   60.584  81.937   59.921  82.318
    0.676 0.686
  2     62.018  81.198   62.789  80.841     63.603  80.501   63.356  81.732   63.079  82.950     62.780  84.158   61.885  84.531   61.038  84.923
    0.690 0.679
  0       62.780  84.158   62.480  85.367   62.157  86.565     61.818  87.757   62.805  87.346   63.844  86.956     64.919  86.594   65.155  85.441   65.380  84.279     65.588  83.105   64.615  83.433   63.674  83.786
    0.679 0.670 0.667 0.676
  2     66.562  82.777   67.568  82.473     68.592  82.200   68.481  83.345   68.361  84.475     68.236  85.595   67.106  85.897   65.994  86.232
    0.665 0.657
  2     69.366  85.293   70.516  85.023     71.667  84.790   71.678  83.697   71.689  82.592     71.699  81.471   70.656  81.682   69.615  81.926
    0.641 0.648
  2     72.741  81.260   73.785  81.083     74.815  80.941   74.906  82.045   75.005  83.131     75.108  84.205   73.971  84.361   72.818  84.557
    0.625 0.619
  2     76.245  84.048   77.367  83.931     78.455  83.856   78.240  82.794   78.035  81.719     77.845  80.625   76.860  80.694   75.844  80.799
    0.592 0.597
  2     78.831  80.557   79.787  80.526     80.698  80.534   80.981  81.624   81.286  82.696     81.606  83.755   80.599  83.747   79.544  83.781
    0.564 0.560
  2     82.612  83.763   83.570  83.813     84.465  83.904   84.049  82.841   83.654  81.764     83.287  80.669   82.477  80.586   81.610  80.541
    0.525 0.528
  2     84.097  80.752   84.849  80.872     85.533  81.027   85.973  82.134   86.446  83.223     86.945  84.300   86.190  84.128   85.359  83.996
    0.490 0.488
  2     87.699  84.471   88.378  84.682     88.971  84.929   88.405  83.831   87.867  82.722     87.367  81.597   86.831  81.373   86.216  81.182
    0.450 0.450
  2     87.904  81.820   88.362  82.076     88.735  82.361   89.279  83.511   89.865  84.647     90.481  85.773   90.069  85.459   89.563  85.176
    0.410 0.412
  2     90.893  86.088   91.211  86.434     91.430  86.806   90.782  85.646   90.166  84.477     89.594  83.297   89.396  82.960   89.108  82.646
    0.375 0.372
  2     89.793  83.634   89.901  83.996     89.919  84.376   90.502  85.591   91.129  86.798     91.788  87.998   91.769  87.578   91.649  87.179
    0.336 0.340
  2     91.807  88.417   91.726  88.857     91.545  89.310   90.894  88.067   90.275  86.819     89.699  85.564   89.863  85.154   89.936  84.755
    0.308 0.303
  0       56.331  87.874   55.822  89.204   55.273  90.533     54.697  91.861   55.255  91.382   55.902  90.903     56.627  90.432   57.140  89.151   57.627  87.867     58.080  86.580   57.423  87.006   56.837  87.440
    0.648 0.641 0.657 0.665
  2     58.736  86.153   59.464  85.734     60.251  85.328   59.869  86.575   59.458  87.815     59.025  89.050   58.156  89.498   57.353  89.961
    0.676 0.667
  2     59.895  88.602   60.830  88.169     61.818  87.757   62.157  86.565   62.480  85.367     62.780  84.158   61.885  84.531   61.038  84.923
    0.670 0.679
  0       61.818  87.757   61.478  88.949   61.122  90.134     60.753  91.314   61.844  90.859   62.992  90.429     64.179  90.029   64.435  88.891   64.683  87.747     64.919  86.594   63.844  86.956   62.805  87.346
    0.670 0.664 0.661 0.667
  2     65.994  86.232   67.106  85.897     68.236  85.595   68.111  86.715   67.979  87.824     67.843  88.925   66.594  89.259   65.367  89.629
    0.657 0.651
  2     69.091  88.591   70.361  88.294     71.632  88.037   71.644  86.964   71.656  85.883     71.667  84.790   70.516  85.023   69.366  85.293
    0.635 0.641
  2     72.818  84.557   73.971  84.361     75.108  84.205   75.212  85.278   75.321  86.339     75.433  87.390   74.177  87.563   72.904  87.779
    0.619 0.614
  2     76.689  87.217   77.928  87.088     79.130  87.005   78.896  85.966   78.670  84.918     78.455  83.856   77.367  83.931   76.245  84.048
    0.588 0.592
  2     79.544  83.781   80.599  83.747     81.606  83.755   81.926  84.813   82.262  85.858     82.610  86.893   81.498  86.884   80.332  86.922
    0.560 0.557
  2     83.722  86.902   84.780  86.957     85.768  87.058   85.316  86.018   84.880  84.968     84.465  83.904   83.570  83.813   82.612  83.763
    0.523 0.525
  2     85.359  83.996   86.190  84.128     86.945  84.300   87.443  85.376   87.966  86.440     88.507  87.495   87.673  87.305   86.755  87.159
    0.488 0.487
  2     89.341  87.684   90.090  87.917     90.745  88.190   90.130  87.112   89.536  86.027     88.971  84.929   88.378  84.682   87.699  84.471
    0.450 0.450
  2     89.563  85.176   90.069  85.459     90.481  85.773   91.097  86.899   91.744  88.014     92.413  89.122   91.958  88.775   91.399  88.462
    0.412 0.413
  2     92.868  89.470   93.219  89.852     93.461  90.264   92.757  89.118   92.077  87.967     91.430  86.806   91.211  86.434   90.893  86.088
    0.377 0.375
  2     91.649  87.179   91.769  87.578     91.788  87.998   92.448  89.198   93.140  90.391     93.857  91.579   93.835  91.116   93.703  90.675
    0.340 0.343
  2     93.878  92.042   93.788  92.528     93.588  93.029   92.881  91.793   92.197  90.554     91.545  89.310   91.726  88.857   91.807  88.417
    0.312 0.308
  0       54.697  91.861   54.120  93.190   53.514  94.518     52.888  95.847   53.505  95.317   54.220  94.788     55.020  94.268   55.577  92.991   56.115  91.713     56.627  90.432   55.902  90.903   55.255  91.382
    0.641 0.635 0.651 0.657
  2     57.353  89.961   58.156  89.498     59.025  89.050   58.593  90.285   58.139  91.515     57.669  92.741   56.709  93.236   55.821  93.747
    0.667 0.661
  2     58.629  92.246   59.663  91.768     60.753  91.314   61.122  90.134   61.478  88.949     61.818  87.757   60.830  88.169   59.895  88.602
    0.664 0.670
  0       60.753  91.314   60.384  92.494   60.003  93.668     59.613  94.839   60.814  94.338   62.078  93.864     63.386  93.423   63.658  92.297   63.923  91.166     64.179  90.029   62.992  90.429   61.844  90.859
    0.664 0.659 0.656 0.661
  2     65.367  89.629   66.594  89.259     67.843  88.925   67.706  90.027   67.565  91.120     67.421  92.208   66.046  92.575   64.694  92.983
    0.651 0.647
  2     68.796  91.840   70.195  91.512     71.595  91.229   71.608  90.172   71.620  89.109     71.632  88.037   70.361  88.294   69.091  88.591
    0.631 0.635
  2     72.904  87.779   74.177  87.563     75.433  87.390   75.546  88.441   75.662  89.482     75.781  90.517   74.398  90.707   72.996  90.946
    0.614 0.610
  2     77.165  90.326   78.529  90.184     79.853  90.093   79.605  89.072   79.364  88.043     79.130  87.005   77.928  87.088   76.689  87.217
    0.585 0.588
  2     80.332  86.922   81.498  86.884     82.610  86.893   82.958  87.928   83.317  88.952     83.686  89.969   82.461  89.960   81.177  90.001
    0.557 0.555
  2     84.911  89.979   86.076  90.040     87.164  90.151   86.686  89.128   86.219  88.098     85.768  87.058   84.780  86.957   83.722  86.902
    0.522 0.523
  2     86.755  87.159   87.673  87.305     88.507  87.495   89.048  88.549   89.608  89.594     90.181  90.632   89.263  90.423   88.252  90.262
    0.487 0.486
  2     91.099  90.841   91.925  91.097     92.646  91.398   91.995  90.336   91.359  89.267     90.745  88.190   90.090  87.917   89.341  87.684
    0.450 0.450
  2     91.399  88.462   91.958  88.775     92.413  89.122   93.082  90.230   93.774  91.330     94.483  92.425   93.982  92.042   93.366  91.698
    0.413 0.414
  2     94.984  92.807   95.371  93.228     95.637  93.682   94.892  92.548   94.164  91.409     93.461  90.264   93.219  89.852   92.868  89.470
    0.378 0.377
  2     93.703  90.675   93.835  91.116     93.857  91.579   94.573  92.768   95.314  93.951     96.073  95.131   96.050  94.621   95.904  94.135
    0.343 0.345
  2     96.097  95.641   95.998  96.176     95.778  96.728   95.028  95.498   94.296  94.265     93.588  93.029   93.788  92.528   93.878  92.042
    0.315 0.312
  0       52.888  95.847   52.261  97.175   51.613  98.503     50.949  99.831   51.629  99.248   52.416  98.665     53.298  98.092   53.888  96.819   54.464  95.544     55.020  94.268   54.220  94.788   53.505  95.317
    0.635 0.631 0.647 0.651
  2     55.821  93.747   56.709  93.236     57.669  92.741   57.199  93.968   56.713  95.191     56.216  96.411   55.158  96.956   54.181  97.519
    0.661 0.656
  2     57.273  95.866   58.412  95.339     59.613  94.839   60.003  93.668   60.384  92.494     60.753  91.314   59.663  91.768   58.629  92.246
    0.659 0.664
  0       59.613  94.839   59.222  96.009   58.822  97.176     58.415  98.340   59.732  97.791   61.119  97.271     62.553  96.787   62.836  95.670   63.114  94.549     63.386  93.423   62.078  93.864   60.814  94.338
    0.659 0.656 0.653 0.656
  2     64.694  92.983   66.046  92.575     67.421  92.208   67.277  93.295   67.129  94.377     66.978  95.454   65.470  95.857   63.988  96.304
    0.647 0.644
  2     68.486  95.051   70.020  94.692     71.556  94.381   71.569  93.336   71.582  92.286     71.595  91.229   70.195  91.512   68.796  91.840
    0.628 0.631
  2     72.996  90.946   74.398  90.707     75.781  90.517   75.901  91.551   76.023  92.578     76.147  93.600   74.630  93.809   73.092  94.070
    0.610 0.608
  2     77.664  93.391   79.160  93.235     80.612  93.135   80.354  92.127   80.101  91.113     79.853  90.093   78.529  90.184   77.165  90.326
    0.582 0.585
  2     81.177  90.001   82.461  89.960     83.686  89.969   84.054  90.987   84.432  91.996     84.816  93.000   83.473  92.989   82.064  93.034
    0.555 0.553
  2     86.159  93.011   87.437  93.077     88.630  93.199   88.132  92.189   87.642  91.174     87.164  90.151   86.076  90.040   84.911  89.979
    0.520 0.522
  2     88.252  90.262   89.263  90.423     90.181  90.632   90.754  91.670   91.341  92.701     91.939  93.726   90.932  93.497   89.823  93.321
    0.486 0.486
  2     92.946  93.955   93.851  94.237     94.642  94.566   93.963  93.515   93.297  92.460     92.646  91.398   91.925  91.097   91.099  90.841
    0.450 0.450
  2     93.366  91.698   93.982  92.042     94.483  92.425   95.192  93.519   95.918  94.608     96.657  95.692   96.107  95.273   95.432  94.895
    0.414 0.414
  2     97.206  96.112   97.630  96.574     97.922  97.071   97.146  95.945   96.383  94.816     95.637  93.682   95.371  93.228   94.984  92.807
    0.380 0.378
  2     95.904  94.135   96.050  94.621     96.073  95.131   96.832  96.311   97.610  97.487     98.401  98.660   98.375  98.101   98.215  97.568
    0.345 0.347
  2     98.426  99.220   98.318  99.807     98.077 100.412   97.295  99.186   96.528  97.958     95.778  96.728   95.998  96.176   96.097  95.641
    0.318 0.315
  0       50.949  99.831   50.286 101.159   49.606 102.487     48.914 103.815   49.660 103.175   50.523 102.536     51.490 101.908   52.105 100.637   52.709  99.365     53.298  98.092   52.416  98.665   51.629  99.248
    0.631 0.628 0.644 0.647
  2     54.181  97.519   55.158  96.956     56.216  96.411   55.718  97.631   55.208  98.848     54.690 100.064   53.530 100.661   52.458 101.279
    0.656 0.653
  2     55.850  99.466   57.098  98.888     58.415  98.340   58.822  97.176   59.222  96.009     59.613  94.839   58.412  95.339   57.273  95.866
    0.656 0.659
  0       58.415  98.340   58.008  99.503   57.594 100.664     57.174 101.823   58.612 101.224   60.125 100.656     61.690 100.129   61.982  99.018   62.270  97.905     62.553  96.787   61.119  97.271   59.732  97.791
    0.656 0.653 0.650 0.653
  2     63.988  96.304   65.470  95.857     66.978  95.454   66.828  96.532   66.675  97.604     66.520  98.674   64.874  99.114   63.256  99.601
    0.644 0.641
  2     68.165  98.234   69.839  97.841     71.515  97.502   71.529  96.466   71.543  95.426     71.556  94.381   70.020  94.692   68.486  95.051
    0.626 0.628
  2     73.092  94.070   74.630  93.809     76.147  93.600   76.271  94.622   76.398  95.638     76.526  96.650   74.870  96.878   73.192  97.163
    0.608 0.606
  2     78.181  96.422   79.814  96.252     81.399  96.142   81.133  95.145   80.870  94.143     80.612  93.135   79.160  93.235   77.664  93.391
    0.581 0.582
  2     82.064  93.034   83.473  92.989     84.816  93.000   85.200  94.003   85.590  95.001     85.986  95.995   84.520  95.983   82.984  96.033
    0.553 0.552
  2     87.452  96.007   88.846  96.080     90.149  96.212   89.635  95.213   89.128  94.209     88.630  93.199   87.437  93.077   86.159  93.011
    0.520 0.520
  2     89.823  93.321   90.932  93.497     91.939  93.726   92.536  94.752   93.144  95.772     93.760  96.788   92.661  96.538   91.451  96.345
    0.486 0.485
  2     94.859  97.038   95.847  97.345     96.710  97.704   96.010  96.662   95.320  95.617     94.642  94.566   93.851  94.237   92.946  93.955
    0.450 0.450
  2     95.432  94.895   96.107  95.273     96.657  95.692   97.395  96.777   98.147  97.857     98.909  98.933   98.309  98.476   97.572  98.064
    0.414 0.415
  2     99.508  99.391   99.971  99.895    100.290 100.438   99.489  99.319   98.699  98.197     97.922  97.071   97.630  96.574   97.206  96.112
    0.380 0.380
  2     98.215  97.568   98.375  98.101     98.401  98.660   99.192  99.833   99.996 101.004    100.812 102.172  100.784 101.562  100.609 100.981
    0.347 0.348
  0       48.914 103.815   48.223 105.143   47.519 106.470     46.806 107.798   47.619 107.100   48.561 106.402     49.617 105.716   50.251 104.448   50.876 103.178     51.490 101.908   50.523 102.536   49.660 103.175
    0.628 0.626 0.641 0.644
  2     52.458 101.279   53.530 100.661     54.690 100.064   54.171 101.279   53.643 102.493     53.109 103.704   51.843 104.357   50.673 105.031
    0.653 0.650
  2     54.375 103.052   55.737 102.422     57.174 101.823   57.594 100.664   58.008  99.503     58.415  98.340   57.098  98.888   55.850  99.466
    0.653 0.656
  0       57.174 101.823   56.755 102.981   56.330 104.137     55.900 105.292   57.461 104.641   59.104 104.025     60.804 103.452   61.103 102.347   61.399 101.239     61.690 100.129   60.125 100.656   58.612 101.224
    0.653 0.651 0.648 0.650
  2     63.256  99.601   64.874  99.114     66.520  98.674   66.364  99.743   66.207 100.809     66.049 101.872   64.261 102.350   62.504 102.879
    0.641 0.639
  2     67.836 101.395   69.653 100.969     71.474 100.600   71.488  99.571   71.502  98.539     71.515  97.502   69.839  97.841   68.165  98.234
    0.624 0.626
  2     73.192  97.163   74.870  96.878     76.526  96.650   76.654  97.662   76.784  98.670     76.915  99.675   75.117  99.922   73.294 100.232
    0.606 0.604
  2     78.713  99.427   80.486  99.243     82.206  99.123   81.934  98.133   81.665  97.140     81.399  96.142   79.814  96.252   78.181  96.422
    0.579 0.581
  2     82.984  96.033   84.520  95.983     85.986  95.995   86.382  96.989   86.783  97.978     87.188  98.963   85.596  98.951   83.927  99.004
    0.552 0.551
  2     88.780  98.976   90.294  99.055     91.708  99.200   91.183  98.208   90.662  97.212     90.149  96.212   88.846  96.080   87.452  96.007
    0.519 0.520
  2     91.451  96.345   92.661  96.538     93.760  96.788   94.376  97.804   94.999  98.816     95.629  99.825   94.436  99.553   93.122  99.344
    0.485 0.485
  2     96.823 100.096   97.896 100.429     98.833 100.820   98.117  99.784   97.409  98.746     96.710  97.704   95.847  97.345   94.859  97.038
    0.450 0.450
  2     97.572  98.064   98.309  98.476     98.909  98.933   99.670 100.010  100.442 101.084    101.221 102.154  100.570 101.657   99.769 101.210
    0.415 0.415
  2    101.872 102.652  102.375 103.199    102.721 103.788  101.902 102.674  101.091 101.557    100.290 100.438   99.971  99.895   99.508  99.391
    0.381 0.380
  2    100.609 100.981  100.784 101.562    100.812 102.172  101.627 103.341  102.453 104.507    103.288 105.672  103.257 105.008  103.067 104.377
    0.348 0.349
  0       46.806 107.798   46.093 109.126   45.370 110.453     44.641 111.781   45.524 111.022   46.547 110.265     47.694 109.520   48.342 108.253   48.984 106.985     49.617 105.716   48.561 106.402   47.619 107.100
    0.626 0.624 0.639 0.641
  2     50.673 105.031   51.843 104.357     53.109 103.704   52.574 104.916   52.032 106.126     51.485 107.335   50.111 108.043   48.840 108.776
    0.650 0.648
  2     52.860 106.627   54.339 105.942     55.900 105.292   56.330 104.137   56.755 102.981     57.174 101.823   55.737 102.422   54.375 103.052
    0.651 0.653
    ]
>> shfill


%%Trailer
end
grestore

%%EndDocument
 @endspecial 0 TeXcolorgray 0 TeXcolorgray eop end
%%Trailer

userdict /end-hook known{end-hook}if
%%EOF
